%OpenBCI Raw EXG Data
%Number of channels = 4
%Sample Rate = 200 Hz
%Board = OpenBCI_GUI$BoardGanglionNative
Sample Index, EXG Channel 0, EXG Channel 1, EXG Channel 2, EXG Channel 3, Accel Channel 0, Accel Channel 1, Accel Channel 2, Other, Other, Other, Other, Other, Timestamp, Marker Channel, Timestamp (Formatted)
0.0, -512.0147433336824, -597.263892873656, -398.78740222519264, -407.5163287217729, 0.0, 0.0, 0.0, 0.0, 0.0, 0.0, 0.0, 0.0, 1.740160994931918E9, 0.0, 2025-02-21 12:03:14.931
1.0, -504.33298882469535, -588.411549678538, -381.07523603504524, -382.75445111515, 0.0, 0.0, 0.0, 0.0, 0.0, 0.0, 0.0, 0.0, 1.74016099493281E9, 0.0, 2025-02-21 12:03:14.932
1.0, -521.0952204260975, -603.22155350307, -400.2459632079117, -413.20097665442154, 0.0, 0.0, 0.0, 0.0, 0.0, 0.0, 0.0, 0.0, 1.740160994932843E9, 0.0, 2025-02-21 12:03:14.932
2.0, -512.1905186315998, -600.3044315376319, -395.4701109644957, -404.9544972521253, -0.4480000212788582, 0.0, 0.0, 0.0, 0.0, 0.0, 0.0, 0.0, 1.740160994962364E9, 0.0, 2025-02-21 12:03:14.962
2.0, -521.0241623269394, -607.1222691568546, -386.77484356751665, -398.37227333011106, -0.4480000212788582, 0.0, 0.0, 0.0, 0.0, 0.0, 0.0, 0.0, 1.740160994962394E9, 0.0, 2025-02-21 12:03:14.962
3.0, -507.6876790849492, -594.5375058059581, -403.8026080657728, -414.4650628394447, -0.4480000212788582, 0.0, 0.0, 0.0, 0.0, 0.0, 0.0, 0.0, 1.740160994963608E9, 0.0, 2025-02-21 12:03:14.963
3.0, -516.2520499834791, -603.9620536942966, -386.65890666889027, -386.2362979738973, -0.4480000212788582, 0.0, 0.0, 0.0, 0.0, 0.0, 0.0, 0.0, 1.740160994963623E9, 0.0, 2025-02-21 12:03:14.963
4.0, -516.2483100835234, -609.541984428186, -386.10540147544816, -395.1970982677303, -0.4480000212788582, 0.0, 0.0, 0.0, 0.0, 0.0, 0.0, 0.0, 1.740160994965079E9, 0.0, 2025-02-21 12:03:14.965
4.0, -507.8335351832211, -595.8876096899621, -395.81792166037485, -398.8808997240849, -0.4480000212788582, 0.0, 0.0, 0.0, 0.0, 0.0, 0.0, 0.0, 1.740160994965106E9, 0.0, 2025-02-21 12:03:14.965
5.0, -509.7670634603128, -594.9862938006409, -378.73405866278335, -375.3419694029726, -0.4480000212788582, 0.0, 0.0, 0.0, 0.0, 0.0, 0.0, 0.0, 1.740160994965132E9, 0.0, 2025-02-21 12:03:14.965
5.0, -510.5038237515837, -601.7293334207498, -403.7689489661716, -397.9421848352067, -0.4480000212788582, 0.0, 0.0, 0.0, 0.0, 0.0, 0.0, 0.0, 1.740160994965143E9, 0.0, 2025-02-21 12:03:14.965
6.0, -506.1393605032936, -593.7970056147315, -388.0912883519195, -385.00213098851964, -0.4480000212788582, 0.0, 0.0, 0.0, 0.0, 0.0, 0.0, 0.0, 1.740160994993542E9, 0.0, 2025-02-21 12:03:14.993
6.0, -500.574389369227, -593.8418844141997, -371.9685796429403, -365.65936841769144, -0.4480000212788582, 0.0, 0.0, 0.0, 0.0, 0.0, 0.0, 0.0, 1.740160994993572E9, 0.0, 2025-02-21 12:03:14.993
7.0, -513.92583221104, -599.2460398501717, -405.82963384175673, -411.446963575203, -0.4480000212788582, 0.0, 0.0, 0.0, 0.0, 0.0, 0.0, 0.0, 1.740160994993599E9, 0.0, 2025-02-21 12:03:14.993
7.0, -509.93161905836314, -594.6684023044072, -381.2659709327854, -387.1002148636617, -0.4480000212788582, 0.0, 0.0, 0.0, 0.0, 0.0, 0.0, 0.0, 1.74016099499361E9, 0.0, 2025-02-21 12:03:14.993
8.0, -502.00303115230054, -596.4149355837144, -382.1224080226384, -388.0090105528943, -0.4480000212788582, 0.0, 0.0, 0.0, 0.0, 0.0, 0.0, 0.0, 1.740160995022452E9, 0.0, 2025-02-21 12:03:15.022
8.0, -511.4574982402846, -595.3453241963871, -397.3625003420748, -391.6591529096477, -0.4480000212788582, 0.0, 0.0, 0.0, 0.0, 0.0, 0.0, 0.0, 1.740160995022481E9, 0.0, 2025-02-21 12:03:15.022
9.0, -510.96757134608924, -588.9762745718472, -375.92165389610454, -386.939399165567, -0.4480000212788582, 0.0, 0.0, 0.0, 0.0, 0.0, 0.0, 0.0, 1.740160995027212E9, 0.0, 2025-02-21 12:03:15.027
9.0, -512.0820615328848, -600.5886639342643, -405.19759074924514, -411.04305437998846, -0.4480000212788582, 0.0, 0.0, 0.0, 0.0, 0.0, 0.0, 0.0, 1.740160995027235E9, 0.0, 2025-02-21 12:03:15.027
10.0, -505.0099107166752, -596.5981906815432, -386.1241009752266, -390.7279178206809, -0.4480000212788582, 0.0, 0.9280000440776348, 0.0, 0.0, 0.0, 0.0, 0.0, 1.740160995027261E9, 0.0, 2025-02-21 12:03:15.027
10.0, -506.59562829788774, -594.212134509813, -380.3122964440845, -387.55274275830016, -0.4480000212788582, 0.0, 0.9280000440776348, 0.0, 0.0, 0.0, 0.0, 0.0, 1.740160995027276E9, 0.0, 2025-02-21 12:03:15.027
11.0, -510.7244778489694, -596.7066477802582, -418.1077253962867, -420.7667942647822, -0.4480000212788582, 0.0, 0.9280000440776348, 0.0, 0.0, 0.0, 0.0, 0.0, 1.740160995027297E9, 0.0, 2025-02-21 12:03:15.027
11.0, -514.3447010060772, -591.2015150454827, -382.28696362068877, -381.4267866308801, -0.4480000212788582, 0.0, 0.9280000440776348, 0.0, 0.0, 0.0, 0.0, 0.0, 1.740160995027312E9, 0.0, 2025-02-21 12:03:15.027
12.0, -512.4261323288083, -597.6790217687376, -404.6141663561575, -407.63974542031065, -0.4480000212788582, 0.0, 0.9280000440776348, 0.0, 0.0, 0.0, 0.0, 0.0, 1.74016099505294E9, 0.0, 2025-02-21 12:03:15.052
12.0, -507.6951588848606, -592.6114573287778, -400.75084970192984, -412.15754456678405, -0.4480000212788582, 0.0, 0.9280000440776348, 0.0, 0.0, 0.0, 0.0, 0.0, 1.740160995052969E9, 0.0, 2025-02-21 12:03:15.052
13.0, -504.85283491853625, -586.4294027020223, -377.73176547465846, -373.7487720218487, -0.4480000212788582, 0.0, 0.9280000440776348, 0.0, 0.0, 0.0, 0.0, 0.0, 1.740160995052995E9, 0.0, 2025-02-21 12:03:15.052
13.0, -510.5861015506089, -603.113096404355, -419.7645010766573, -427.86886428063735, -0.4480000212788582, 0.0, 0.9280000440776348, 0.0, 0.0, 0.0, 0.0, 0.0, 1.740160995053006E9, 0.0, 2025-02-21 12:03:15.053
14.0, -507.44832548778504, -590.9771210481413, -389.4638316356577, -393.5440624873154, -0.4480000212788582, 0.0, 0.9280000440776348, 0.0, 0.0, 0.0, 0.0, 0.0, 1.740160995083466E9, 0.0, 2025-02-21 12:03:15.083
14.0, -513.7986756125465, -599.2460398501717, -392.2687566024251, -400.1375061091967, -0.4480000212788582, 0.0, 0.9280000440776348, 0.0, 0.0, 0.0, 0.0, 0.0, 1.740160995083499E9, 0.0, 2025-02-21 12:03:15.083
15.0, -510.0961746564135, -594.6758821043186, -416.9483564100228, -428.3064325754531, -0.4480000212788582, 0.0, 0.9280000440776348, 0.0, 0.0, 0.0, 0.0, 0.0, 1.740160995084225E9, 0.0, 2025-02-21 12:03:15.084
15.0, -502.29100344888866, -585.8384985090233, -379.62041495228186, -386.81224256707355, -0.4480000212788582, 0.0, 0.9280000440776348, 0.0, 0.0, 0.0, 0.0, 0.0, 1.740160995084243E9, 0.0, 2025-02-21 12:03:15.084
16.0, -515.5152896922082, -606.864216059912, -411.0019154804759, -412.580153261777, -0.4480000212788582, 0.0, 0.9280000440776348, 0.0, 0.0, 0.0, 0.0, 0.0, 1.740160995084265E9, 0.0, 2025-02-21 12:03:15.084
16.0, -508.353381277062, -597.3648701724596, -398.3984526298009, -403.37251957086846, -0.4480000212788582, 0.0, 0.9280000440776348, 0.0, 0.0, 0.0, 0.0, 0.0, 1.740160995084276E9, 0.0, 2025-02-21 12:03:15.084
17.0, -509.32949516549706, -597.3648701724596, -389.70318523282185, -388.0875484519638, -0.4480000212788582, 0.0, 0.9280000440776348, 0.0, 0.0, 0.0, 0.0, 0.0, 1.74016099511291E9, 0.0, 2025-02-21 12:03:15.112
17.0, -507.44458558782935, -596.3513572844677, -419.5438469792716, -436.3846164797433, -0.4480000212788582, 0.0, 0.9280000440776348, 0.0, 0.0, 0.0, 0.0, 0.0, 1.740160995112938E9, 0.0, 2025-02-21 12:03:15.112
18.0, -515.107640597038, -588.4377289782278, -388.3119424493052, -388.11746765160933, -0.4480000212788582, 0.0, 0.9280000440776348, 0.0, 0.0, 0.0, 0.0, 0.0, 1.740160995112966E9, 0.0, 2025-02-21 12:03:15.112
18.0, -513.3798068175092, -592.8358513261192, -392.7923425962217, -385.8361286786385, -0.4480000212788582, 0.0, 0.9280000440776348, 0.0, 0.0, 0.0, 0.0, 0.0, 1.74016099511298E9, 0.0, 2025-02-21 12:03:15.112
19.0, -502.8370288424194, -589.3353049675934, -401.5848473920487, -413.90033794613555, -0.4480000212788582, 0.0, 0.9280000440776348, 0.0, 0.0, 0.0, 0.0, 0.0, 1.74016099511367E9, 0.0, 2025-02-21 12:03:15.113
19.0, -506.2141585024074, -590.2590602566488, -371.2617385513149, -381.14629413420334, -0.4480000212788582, 0.0, 0.9280000440776348, 0.0, 0.0, 0.0, 0.0, 0.0, 1.740160995113691E9, 0.0, 2025-02-21 12:03:15.113
20.0, -504.1946125263348, -591.2202145452611, -396.8389143482782, -390.88873351877555, -0.4480000212788582, 0.0, 0.9120000433176756, 0.0, 0.0, 0.0, 0.0, 0.0, 1.740160995113715E9, 0.0, 2025-02-21 12:03:15.113
20.0, -502.3583216480911, -592.5590987293981, -383.2331583094783, -381.7596377269365, -0.4480000212788582, 0.0, 0.9120000433176756, 0.0, 0.0, 0.0, 0.0, 0.0, 1.740160995113726E9, 0.0, 2025-02-21 12:03:15.113
21.0, -502.6836929442361, -594.9339352012612, -382.6048551169224, -384.95351228909567, -0.4480000212788582, 0.01600000075995922, 0.9120000433176756, 0.0, 0.0, 0.0, 0.0, 0.0, 1.740160995143268E9, 0.0, 2025-02-21 12:03:15.143
21.0, -500.66788686811924, -592.4618613305502, -408.93001090502366, -405.45564384618774, -0.4480000212788582, 0.01600000075995922, 0.9120000433176756, 0.0, 0.0, 0.0, 0.0, 0.0, 1.74016099514329E9, 0.0, 2025-02-21 12:03:15.143
22.0, -505.7990296073258, -587.8580444850959, -376.52003788901493, -378.1618539695628, -0.43200002051889896, 0.01600000075995922, 0.9120000433176756, 0.0, 0.0, 0.0, 0.0, 0.0, 1.740160995143313E9, 0.0, 2025-02-21 12:03:15.143
22.0, -502.08156905137, -592.0691718352027, -382.3094030204229, -382.7656708150171, -0.43200002051889896, 0.01600000075995922, 0.9120000433176756, 0.0, 0.0, 0.0, 0.0, 0.0, 1.740160995143324E9, 0.0, 2025-02-21 12:03:15.143
23.0, -509.44543206412345, -592.2786062327214, -401.1734583969228, -411.0393144800328, -0.43200002051889896, 0.01600000075995922, 0.9120000433176756, 0.0, 0.0, 0.0, 0.0, 0.0, 1.740160995172116E9, 0.0, 2025-02-21 12:03:15.172
23.0, -502.81832934264094, -583.1195912412368, -372.7464788337238, -369.4104880732484, -0.43200002051889896, 0.01600000075995922, 0.9120000433176756, 0.0, 0.0, 0.0, 0.0, 0.0, 1.740160995172154E9, 0.0, 2025-02-21 12:03:15.172
24.0, -506.8237621951848, -584.60059162369, -392.66518599772826, -398.5330890282057, -0.43200002051889896, 0.01600000075995922, 0.9120000433176756, 0.0, 0.0, 0.0, 0.0, 0.0, 1.740160995173374E9, 0.0, 2025-02-21 12:03:15.173
24.0, -507.78491648379713, -591.1865554456599, -381.2809305326082, -397.48965694056824, -0.43200002051889896, 0.01600000075995922, 0.9120000433176756, 0.0, 0.0, 0.0, 0.0, 0.0, 1.740160995173394E9, 0.0, 2025-02-21 12:03:15.173
25.0, -504.7967364192009, -586.5378598007374, -363.5575446425937, -368.4493337846361, -0.43200002051889896, 0.01600000075995922, 0.9120000433176756, 0.0, 0.0, 0.0, 0.0, 0.0, 1.740160995173418E9, 0.0, 2025-02-21 12:03:15.173
25.0, -506.640507097356, -587.3643776909448, -390.4698647237383, -386.58410866977647, -0.43200002051889896, 0.01600000075995922, 0.9120000433176756, 0.0, 0.0, 0.0, 0.0, 0.0, 1.740160995173429E9, 0.0, 2025-02-21 12:03:15.173
26.0, -497.0065248114988, -572.1990833706222, -359.3838162920438, -356.1600225302391, -0.43200002051889896, 0.01600000075995922, 0.9120000433176756, 0.0, 0.0, 0.0, 0.0, 0.0, 1.740160995174808E9, 0.0, 2025-02-21 12:03:15.174
26.0, -497.9489796003327, -572.7002299646847, -350.8157054935582, -350.83440499333665, -0.43200002051889896, 0.01600000075995922, 0.9120000433176756, 0.0, 0.0, 0.0, 0.0, 0.0, 1.740160995174868E9, 0.0, 2025-02-21 12:03:15.174
27.0, -499.95730587653816, -574.4168440443464, -366.5532045071013, -372.3051706389524, -0.43200002051889896, 0.01600000075995922, 0.9120000433176756, 0.0, 0.0, 0.0, 0.0, 0.0, 1.740160995201823E9, 0.0, 2025-02-21 12:03:15.201
27.0, -494.3175367433578, -570.8414996867068, -345.8453784524463, -351.45896828593686, -0.43200002051889896, 0.01600000075995922, 0.9120000433176756, 0.0, 0.0, 0.0, 0.0, 0.0, 1.740160995201847E9, 0.0, 2025-02-21 12:03:15.201
28.0, -498.3528887955472, -578.8074865923263, -360.0794376838021, -376.33304289123043, -0.43200002051889896, 0.01600000075995922, 0.9120000433176756, 0.0, 0.0, 0.0, 0.0, 0.0, 1.740160995202776E9, 0.0, 2025-02-21 12:03:15.202
28.0, -493.29654405545443, -579.1777366879396, -350.57261199643835, -360.65538227697834, -0.43200002051889896, 0.01600000075995922, 0.9120000433176756, 0.0, 0.0, 0.0, 0.0, 0.0, 1.740160995202793E9, 0.0, 2025-02-21 12:03:15.202
29.0, -493.25914505589753, -575.8978444267996, -338.4104573405348, -355.0829313430004, -0.43200002051889896, 0.01600000075995922, 0.9120000433176756, 0.0, 0.0, 0.0, 0.0, 0.0, 1.740160995231994E9, 0.0, 2025-02-21 12:03:15.231
29.0, -501.1204147627577, -581.6049317591824, -360.1430159830488, -372.1667943405919, -0.43200002051889896, 0.01600000075995922, 0.9120000433176756, 0.0, 0.0, 0.0, 0.0, 0.0, 1.740160995232025E9, 0.0, 2025-02-21 12:03:15.232
30.0, -488.80866410862654, -567.1651780302636, -343.8520117760636, -354.54064584942535, -0.43200002051889896, 0.01600000075995922, 0.9120000433176756, 0.0, 0.0, 0.0, 0.0, 0.0, 1.740160995233324E9, 0.0, 2025-02-21 12:03:15.233
30.0, -491.2246394800022, -579.0730194891803, -353.23542076488957, -365.66310831764713, -0.43200002051889896, 0.01600000075995922, 0.9120000433176756, 0.0, 0.0, 0.0, 0.0, 0.0, 1.740160995233338E9, 0.0, 2025-02-21 12:03:15.233
31.0, -495.9817922236398, -577.8126732041128, -367.17402789974585, -381.3108497322537, -0.43200002051889896, 0.0, 0.9120000433176756, 0.0, 0.0, 0.0, 0.0, 0.0, 1.740160995233358E9, 0.0, 2025-02-21 12:03:15.233
31.0, -495.99301192350686, -577.3377059097402, -353.4747743620537, -358.84153079846874, -0.43200002051889896, 0.0, 0.9120000433176756, 0.0, 0.0, 0.0, 0.0, 0.0, 1.740160995233369E9, 0.0, 2025-02-21 12:03:15.233
32.0, -490.91796768363565, -576.073619724717, -365.4200148205273, -363.79689823975787, -0.43200002051889896, 0.0, 0.9120000433176756, 0.0, 0.0, 0.0, 0.0, 0.0, 1.740160995234442E9, 0.0, 2025-02-21 12:03:15.234
32.0, -491.8267633728683, -579.933196478989, -364.35414333315566, -382.6908728159033, -0.43200002051889896, 0.0, 0.9120000433176756, 0.0, 0.0, 0.0, 0.0, 0.0, 1.740160995234461E9, 0.0, 2025-02-21 12:03:15.234
33.0, -497.6759669035673, -586.4742815014906, -365.43871432030573, -371.0485642538406, -0.43200002051889896, 0.0, 0.9120000433176756, 0.0, 0.0, 0.0, 0.0, 0.0, 1.740160995261884E9, 0.0, 2025-02-21 12:03:15.261
33.0, -499.01859098766, -588.9500952721573, -370.85034955618903, -382.055089823436, -0.43200002051889896, 0.0, 0.9120000433176756, 0.0, 0.0, 0.0, 0.0, 0.0, 1.740160995261915E9, 0.0, 2025-02-21 12:03:15.261
34.0, -494.6092489399016, -581.2795604630373, -368.06038418924436, -370.31928376248106, -0.43200002051889896, 0.0, 0.9120000433176756, 0.0, 0.0, 0.0, 0.0, 0.0, 1.740160995262792E9, 0.0, 2025-02-21 12:03:15.262
34.0, -499.17940668575466, -585.1204377175309, -368.84950307989493, -367.99306599004194, -0.43200002051889896, 0.0, 0.9120000433176756, 0.0, 0.0, 0.0, 0.0, 0.0, 1.740160995262808E9, 0.0, 2025-02-21 12:03:15.262
35.0, -496.29594381991774, -580.1912495759316, -359.50349309062585, -360.58432417782024, -0.43200002051889896, 0.0, 0.9120000433176756, 0.0, 0.0, 0.0, 0.0, 0.0, 1.740160995292029E9, 0.0, 2025-02-21 12:03:15.292
35.0, -497.7245856029913, -584.7352280220948, -365.158221823629, -372.46598633704707, -0.43200002051889896, 0.0, 0.9120000433176756, 0.0, 0.0, 0.0, 0.0, 0.0, 1.740160995292057E9, 0.0, 2025-02-21 12:03:15.292
36.0, -498.95501268841326, -592.2599067329429, -379.5418770532124, -375.87677509663627, -0.43200002051889896, 0.0, 0.9120000433176756, 0.0, 0.0, 0.0, 0.0, 0.0, 1.740160995292992E9, 0.0, 2025-02-21 12:03:15.292
36.0, -498.8652550894767, -578.3362591979094, -368.1202225885354, -366.28767161024734, -0.43200002051889896, 0.0, 0.9120000433176756, 0.0, 0.0, 0.0, 0.0, 0.0, 1.740160995293006E9, 0.0, 2025-02-21 12:03:15.293
37.0, -499.25420468486845, -591.4932272420265, -366.77011870453134, -366.7177601051517, -0.43200002051889896, 0.0, 0.9120000433176756, 0.0, 0.0, 0.0, 0.0, 0.0, 1.740160995293026E9, 0.0, 2025-02-21 12:03:15.293
37.0, -493.7453320501372, -583.5496797361411, -378.943493060302, -380.2748974445276, -0.43200002051889896, 0.0, 0.9120000433176756, 0.0, 0.0, 0.0, 0.0, 0.0, 1.740160995293037E9, 0.0, 2025-02-21 12:03:15.293
38.0, -497.32815620768815, -580.5128809721209, -363.76697904011235, -370.524978260044, -0.43200002051889896, 0.0, 0.9120000433176756, 0.0, 0.0, 0.0, 0.0, 0.0, 1.740160995294134E9, 0.0, 2025-02-21 12:03:15.294
38.0, -495.207632932812, -578.9234234909527, -370.51001866022125, -380.2075792453252, -0.43200002051889896, 0.0, 0.9120000433176756, 0.0, 0.0, 0.0, 0.0, 0.0, 1.740160995294158E9, 0.0, 2025-02-21 12:03:15.294
39.0, -491.9427002714947, -587.024046794977, -364.68699442921206, -370.80921065667644, -0.43200002051889896, 0.0, 0.9120000433176756, 0.0, 0.0, 0.0, 0.0, 0.0, 1.740160995321935E9, 0.0, 2025-02-21 12:03:15.321
39.0, -496.99904501158744, -595.5958974934183, -363.57998404232785, -372.5968828354962, -0.43200002051889896, 0.0, 0.9120000433176756, 0.0, 0.0, 0.0, 0.0, 0.0, 1.740160995322015E9, 0.0, 2025-02-21 12:03:15.322
40.0, -496.20992612093687, -583.7628540336154, -372.32761003868654, -388.07632875209674, -0.43200002051889896, 0.0, 0.9120000433176756, 0.0, 0.0, 0.0, 0.0, 0.0, 1.740160995322781E9, 0.0, 2025-02-21 12:03:15.322
40.0, -499.501038081944, -586.1788294049911, -371.224339551758, -386.7262248680927, -0.43200002051889896, 0.0, 0.9120000433176756, 0.0, 0.0, 0.0, 0.0, 0.0, 1.740160995322798E9, 0.0, 2025-02-21 12:03:15.322
41.0, -510.26447015441954, -604.8895488833077, -383.0947820111178, -387.62380085745826, -0.43200002051889896, 0.0, 0.9120000433176756, 0.0, 0.0, 0.0, 0.0, 0.0, 1.740160995351988E9, 0.0, 2025-02-21 12:03:15.351
41.0, -493.03101115860045, -578.9271633909084, -374.40325451409444, -390.00237722927704, -0.43200002051889896, 0.0, 0.9120000433176756, 0.0, 0.0, 0.0, 0.0, 0.0, 1.740160995352017E9, 0.0, 2025-02-21 12:03:15.352
42.0, -483.57654407061636, -573.3060937575065, -363.09753694804385, -375.0876562059857, -0.43200002051889896, 0.0, 0.9120000433176756, 0.0, 0.0, 0.0, 0.0, 0.0, 1.740160995353645E9, 0.0, 2025-02-21 12:03:15.353
42.0, -494.69900653883815, -582.1434773528017, -375.1175754056312, -385.03952998807654, -0.43200002051889896, 0.0, 0.9120000433176756, 0.0, 0.0, 0.0, 0.0, 0.0, 1.740160995353662E9, 0.0, 2025-02-21 12:03:15.353
43.0, -498.3080099960789, -589.9523884602822, -368.3483564858325, -383.59218870522454, -0.43200002051889896, 0.0, 0.9120000433176756, 0.0, 0.0, 0.0, 0.0, 0.0, 1.740160995353684E9, 0.0, 2025-02-21 12:03:15.353
43.0, -499.4598991824314, -592.8470710259862, -367.8696492915042, -375.2297724043019, -0.43200002051889896, 0.0, 0.9120000433176756, 0.0, 0.0, 0.0, 0.0, 0.0, 1.740160995353695E9, 0.0, 2025-02-21 12:03:15.353
44.0, -497.77320430241525, -583.2691872394644, -369.80317756859586, -385.6865326804109, -0.43200002051889896, 0.0, 0.9120000433176756, 0.0, 0.0, 0.0, 0.0, 0.0, 1.740160995354764E9, 0.0, 2025-02-21 12:03:15.354
44.0, -489.21631320379674, -582.6408840469085, -366.8523965035565, -369.9303341670893, -0.43200002051889896, 0.0, 0.9120000433176756, 0.0, 0.0, 0.0, 0.0, 0.0, 1.740160995354777E9, 0.0, 2025-02-21 12:03:15.354
45.0, -494.0557437464595, -580.0940121770836, -369.4852860723622, -362.6786681530066, -0.43200002051889896, 0.0, 0.9120000433176756, 0.0, 0.0, 0.0, 0.0, 0.0, 1.740160995382217E9, 0.0, 2025-02-21 12:03:15.382
45.0, -490.99650558270514, -581.1673634643666, -377.4849320775829, -372.5557439359836, -0.43200002051889896, 0.0, 0.9120000433176756, 0.0, 0.0, 0.0, 0.0, 0.0, 1.740160995382238E9, 0.0, 2025-02-21 12:03:15.382
46.0, -489.9044547956437, -585.1578367170878, -364.8627697271295, -369.73211946943775, -0.43200002051889896, 0.0, 0.9120000433176756, 0.0, 0.0, 0.0, 0.0, 0.0, 1.740160995383221E9, 0.0, 2025-02-21 12:03:15.383
46.0, -493.58451635204256, -589.8252318617888, -369.57878357125446, -377.69436647510156, -0.43200002051889896, 0.0, 0.9120000433176756, 0.0, 0.0, 0.0, 0.0, 0.0, 1.740160995383234E9, 0.0, 2025-02-21 12:03:15.383
47.0, -493.47979915328324, -586.5453396006487, -375.7196992984973, -378.1618539695628, -0.43200002051889896, 0.0, 0.9120000433176756, 0.0, 0.0, 0.0, 0.0, 0.0, 1.740160995412818E9, 0.0, 2025-02-21 12:03:15.412
47.0, -494.17916044499725, -586.2424077042378, -368.1651013880037, -369.2309728753753, -0.43200002051889896, 0.0, 0.9120000433176756, 0.0, 0.0, 0.0, 0.0, 0.0, 1.740160995412847E9, 0.0, 2025-02-21 12:03:15.412
48.0, -493.6705340510234, -586.8594911969267, -378.70413946313784, -382.1336277225055, -0.43200002051889896, 0.0, 0.9120000433176756, 0.0, 0.0, 0.0, 0.0, 0.0, 1.740160995412989E9, 0.0, 2025-02-21 12:03:15.412
48.0, -492.28303116746247, -586.3433850030415, -369.5750436712988, -368.80088438047096, -0.43200002051889896, 0.0, 0.9120000433176756, 0.0, 0.0, 0.0, 0.0, 0.0, 1.740160995413005E9, 0.0, 2025-02-21 12:03:15.413
49.0, -492.06611697003245, -589.9748278600164, -367.87338919145986, -371.0523041537963, -0.43200002051889896, 0.0, 0.9120000433176756, 0.0, 0.0, 0.0, 0.0, 0.0, 1.740160995414064E9, 0.0, 2025-02-21 12:03:15.414
49.0, -490.73097268585116, -588.7817997741513, -375.29709060350433, -381.84939532587305, -0.43200002051889896, 0.0, 0.9120000433176756, 0.0, 0.0, 0.0, 0.0, 0.0, 1.74016099541409E9, 0.0, 2025-02-21 12:03:15.414
50.0, -498.2070326972753, -589.6083176643588, -369.5713037713431, -370.55115755973384, -0.43200002051889896, 0.0, 0.9120000433176756, 0.0, 0.0, 0.0, 0.0, 0.0, 1.740160995443089E9, 0.0, 2025-02-21 12:03:15.443
50.0, -498.62964139226824, -596.3363976846449, -374.6725273109041, -388.0912883519195, -0.43200002051889896, 0.0, 0.9120000433176756, 0.0, 0.0, 0.0, 0.0, 0.0, 1.740160995443118E9, 0.0, 2025-02-21 12:03:15.443
51.0, -490.61503578722477, -582.8727578441612, -366.05579781299457, -372.4248474375345, -0.43200002051889896, 0.0, 0.9120000433176756, 0.0, 0.0, 0.0, 0.0, 0.0, 1.740160995443147E9, 0.0, 2025-02-21 12:03:15.443
51.0, -493.494758753106, -582.3865708499216, -366.21287361113355, -363.72958004055545, -0.43200002051889896, 0.0, 0.9120000433176756, 0.0, 0.0, 0.0, 0.0, 0.0, 1.74016099544316E9, 0.0, 2025-02-21 12:03:15.443
52.0, -489.84835629630834, -590.4123961548321, -376.17222719313577, -385.5780755816959, -0.4480000212788582, 0.0, 0.9120000433176756, 0.0, 0.0, 0.0, 0.0, 0.0, 1.7401609954445E9, 0.0, 2025-02-21 12:03:15.444
52.0, -490.4953589886427, -582.936336143408, -371.9424003432505, -375.6374214994721, -0.4480000212788582, 0.0, 0.9120000433176756, 0.0, 0.0, 0.0, 0.0, 0.0, 1.74016099544456E9, 0.0, 2025-02-21 12:03:15.444
53.0, -484.7471327567473, -585.7861399096437, -366.5681641069241, -366.28019181033596, -0.4480000212788582, 0.0, 0.9120000433176756, 0.0, 0.0, 0.0, 0.0, 0.0, 1.740160995444584E9, 0.0, 2025-02-21 12:03:15.444
53.0, -491.0039853826165, -583.8750510322861, -371.6432083467953, -375.5027851010673, -0.4480000212788582, 0.0, 0.9120000433176756, 0.0, 0.0, 0.0, 0.0, 0.0, 1.740160995444596E9, 0.0, 2025-02-21 12:03:15.444
54.0, -490.91422778367996, -589.3577443673275, -369.36560927378014, -379.70269275130704, -0.4480000212788582, 0.0, 0.9120000433176756, 0.0, 0.0, 0.0, 0.0, 0.0, 1.740160995474564E9, 0.0, 2025-02-21 12:03:15.474
54.0, -492.5672635640949, -590.5844315527938, -373.3747820262797, -388.2109651505016, -0.4480000212788582, 0.0, 0.9120000433176756, 0.0, 0.0, 0.0, 0.0, 0.0, 1.740160995474589E9, 0.0, 2025-02-21 12:03:15.474
55.0, -489.40704810153693, -577.6219383063726, -367.61533609451726, -379.96448574820533, -0.4480000212788582, 0.0, 0.9120000433176756, 0.0, 0.0, 0.0, 0.0, 0.0, 1.740160995474616E9, 0.0, 2025-02-21 12:03:15.474
55.0, -496.47545901779085, -586.1788294049911, -369.88171546766534, -373.62535532331094, -0.4480000212788582, 0.0, 0.9120000433176756, 0.0, 0.0, 0.0, 0.0, 0.0, 1.740160995474627E9, 0.0, 2025-02-21 12:03:15.474
56.0, -491.9688795711845, -586.4593219016679, -386.62898746924475, -388.2334045502357, -0.4480000212788582, 0.0, 0.9120000433176756, 0.0, 0.0, 0.0, 0.0, 0.0, 1.740160995503828E9, 0.0, 2025-02-21 12:03:15.503
56.0, -493.74159215018153, -586.3546047029085, -366.3475100095384, -361.4819001671858, -0.4480000212788582, 0.0, 0.9120000433176756, 0.0, 0.0, 0.0, 0.0, 0.0, 1.740160995503853E9, 0.0, 2025-02-21 12:03:15.503
57.0, -497.70588610321283, -588.7593603744172, -370.9775061546825, -370.1285488647409, -0.4480000212788582, 0.0, 0.9120000433176756, 0.0, 0.0, 0.0, 0.0, 0.0, 1.740160995503876E9, 0.0, 2025-02-21 12:03:15.503
57.0, -490.1512881927192, -579.9032772793435, -371.6731275464408, -371.43377394927666, -0.4480000212788582, 0.0, 0.9120000433176756, 0.0, 0.0, 0.0, 0.0, 0.0, 1.740160995503888E9, 0.0, 2025-02-21 12:03:15.503
58.0, -497.5637699048966, -581.8667247560807, -363.58372394228354, -369.09633647697046, -0.4480000212788582, 0.0, 0.9120000433176756, 0.0, 0.0, 0.0, 0.0, 0.0, 1.740160995506187E9, 0.0, 2025-02-21 12:03:15.506
58.0, -491.69212697446346, -581.5824923594482, -373.68893362255767, -372.03215794218704, -0.4480000212788582, 0.0, 0.9120000433176756, 0.0, 0.0, 0.0, 0.0, 0.0, 1.740160995506203E9, 0.0, 2025-02-21 12:03:15.506
59.0, -486.68814083375037, -581.2459013634361, -364.6084565301426, -357.3044319166802, -0.4480000212788582, 0.0, 0.9120000433176756, 0.0, 0.0, 0.0, 0.0, 0.0, 1.740160995506226E9, 0.0, 2025-02-21 12:03:15.506
59.0, -495.3086102316156, -580.9429694670253, -369.8555361679755, -357.95517450897023, -0.4480000212788582, 0.0, 0.9120000433176756, 0.0, 0.0, 0.0, 0.0, 0.0, 1.740160995506236E9, 0.0, 2025-02-21 12:03:15.506
60.0, -492.6046625636518, -580.1538505763747, -379.3511421554722, -382.07378932321444, -0.4480000212788582, 0.0, 0.9120000433176756, 0.0, 0.0, 0.0, 0.0, 0.0, 1.74016099553375E9, 0.0, 2025-02-21 12:03:15.533
60.0, -492.0885563697666, -581.7021691580303, -372.9783526309766, -368.595189882908, -0.4480000212788582, 0.0, 0.9120000433176756, 0.0, 0.0, 0.0, 0.0, 0.0, 1.740160995533785E9, 0.0, 2025-02-21 12:03:15.533
61.0, -488.6403686106205, -577.8986909030937, -365.31903752172366, -363.66226184135303, -0.4480000212788582, 0.0, 0.9120000433176756, 0.0, 0.0, 0.0, 0.0, 0.0, 1.740160995533813E9, 0.0, 2025-02-21 12:03:15.533
61.0, -494.43721354193985, -575.5649933307432, -362.7422464522533, -371.115882453043, -0.4480000212788582, 0.0, 0.9120000433176756, 0.0, 0.0, 0.0, 0.0, 0.0, 1.740160995533827E9, 0.0, 2025-02-21 12:03:15.533
62.0, -494.5980292400345, -578.642930994276, -357.87289670994505, -367.8920886912383, -0.43200002051889896, 0.0, 0.9120000433176756, 0.0, 0.0, 0.0, 0.0, 0.0, 1.740160995562203E9, 0.0, 2025-02-21 12:03:15.562
62.0, -497.5637699048966, -586.0554127064534, -386.4681717711501, -381.3108497322537, -0.43200002051889896, 0.0, 0.9120000433176756, 0.0, 0.0, 0.0, 0.0, 0.0, 1.740160995562232E9, 0.0, 2025-02-21 12:03:15.562
63.0, -490.5626771878451, -572.9171441621147, -373.21770622814074, -374.18260041670874, -0.43200002051889896, 0.0, 0.9120000433176756, 0.0, 0.0, 0.0, 0.0, 0.0, 1.740160995563302E9, 0.0, 2025-02-21 12:03:15.563
63.0, -501.65896035637707, -592.1439698343165, -383.1658401102759, -380.6825465396978, -0.43200002051889896, 0.0, 0.9120000433176756, 0.0, 0.0, 0.0, 0.0, 0.0, 1.740160995563315E9, 0.0, 2025-02-21 12:03:15.563
64.0, -497.245878408663, -593.3968363194726, -403.2416230724193, -402.4599839816801, -0.43200002051889896, 0.0, 0.9120000433176756, 0.0, 0.0, 0.0, 0.0, 0.0, 1.740160995565038E9, 0.0, 2025-02-21 12:03:15.565
64.0, -497.1149819102138, -596.6056704814546, -385.18538608634844, -400.7695492017083, -0.43200002051889896, 0.0, 0.9120000433176756, 0.0, 0.0, 0.0, 0.0, 0.0, 1.740160995565051E9, 0.0, 2025-02-21 12:03:15.565
65.0, -504.96503191720694, -607.1185292568989, -398.37601323006675, -406.3906188351102, -0.43200002051889896, 0.0, 0.9120000433176756, 0.0, 0.0, 0.0, 0.0, 0.0, 1.740160995565102E9, 0.0, 2025-02-21 12:03:15.565
65.0, -502.2049857499078, -595.5846777935512, -389.34041493711993, -392.9494183943607, -0.43200002051889896, 0.0, 0.9120000433176756, 0.0, 0.0, 0.0, 0.0, 0.0, 1.740160995565176E9, 0.0, 2025-02-21 12:03:15.565
66.0, -494.0146048469469, -588.2731733801775, -371.91622104356065, -381.4567058305256, -0.43200002051889896, 0.0, 0.9120000433176756, 0.0, 0.0, 0.0, 0.0, 0.0, 1.740160995593056E9, 0.0, 2025-02-21 12:03:15.593
66.0, -494.8186833374202, -587.4840544895269, -389.92383933020756, -391.63297360995784, -0.43200002051889896, 0.0, 0.9120000433176756, 0.0, 0.0, 0.0, 0.0, 0.0, 1.74016099559308E9, 0.0, 2025-02-21 12:03:15.593
67.0, -493.5246779527515, -575.3106801337563, -369.81065736850724, -376.8641086849384, -0.43200002051889896, 0.0, 0.9120000433176756, 0.0, 0.0, 0.0, 0.0, 0.0, 1.740160995593102E9, 0.0, 2025-02-21 12:03:15.593
67.0, -497.92280030064285, -585.1017382177524, -386.63272736920044, -385.6154745812528, -0.43200002051889896, 0.0, 0.9120000433176756, 0.0, 0.0, 0.0, 0.0, 0.0, 1.740160995593112E9, 0.0, 2025-02-21 12:03:15.593
68.0, -496.10894882213324, -587.1848624930717, -392.7512036967091, -395.6047473629005, -0.43200002051889896, 0.0, 0.9120000433176756, 0.0, 0.0, 0.0, 0.0, 0.0, 1.740160995622826E9, 0.0, 2025-02-21 12:03:15.622
68.0, -498.6371211921796, -593.6474096165039, -391.2515038144775, -388.40917984815314, -0.43200002051889896, 0.0, 0.9120000433176756, 0.0, 0.0, 0.0, 0.0, 0.0, 1.740160995622855E9, 0.0, 2025-02-21 12:03:15.622
69.0, -498.3865478951484, -586.2835466037504, -397.504616540391, -392.62030719826, -0.43200002051889896, 0.0, 0.9120000433176756, 0.0, 0.0, 0.0, 0.0, 0.0, 1.740160995624036E9, 0.0, 2025-02-21 12:03:15.624
69.0, -502.3059630487114, -584.1144046294503, -384.9385526892729, -379.59423565259203, -0.43200002051889896, 0.0, 0.9120000433176756, 0.0, 0.0, 0.0, 0.0, 0.0, 1.740160995624054E9, 0.0, 2025-02-21 12:03:15.624
70.0, -493.73037245031446, -588.0039005833678, -378.87617486109957, -374.1639009169303, -0.43200002051889896, 0.0, 0.9120000433176756, 0.0, 0.0, 0.0, 0.0, 0.0, 1.740160995626027E9, 0.0, 2025-02-21 12:03:15.626
70.0, -491.54253097623587, -581.174843264278, -396.18817175598815, -402.9985295752995, -0.43200002051889896, 0.0, 0.9120000433176756, 0.0, 0.0, 0.0, 0.0, 0.0, 1.74016099562604E9, 0.0, 2025-02-21 12:03:15.626
71.0, -489.0031389063224, -576.9113573147915, -380.55538994120434, -366.6766212056391, -0.43200002051889896, 0.0, 0.9120000433176756, 0.0, 0.0, 0.0, 0.0, 0.0, 1.740160995626671E9, 0.0, 2025-02-21 12:03:15.626
71.0, -497.4964517056942, -589.7205146630295, -391.3562210132368, -383.33413560828194, -0.43200002051889896, 0.0, 0.9120000433176756, 0.0, 0.0, 0.0, 0.0, 0.0, 1.740160995626684E9, 0.0, 2025-02-21 12:03:15.626
72.0, -488.83858330827206, -581.9303030553274, -400.5488951043226, -400.8667866005562, -0.43200002051889896, 0.0, 0.9120000433176756, 0.0, 0.0, 0.0, 0.0, 0.0, 1.740160995654458E9, 0.0, 2025-02-21 12:03:15.654
72.0, -492.903854560107, -583.3252857387997, -369.02153847785667, -375.8543356969021, -0.43200002051889896, 0.0, 0.9120000433176756, 0.0, 0.0, 0.0, 0.0, 0.0, 1.740160995654485E9, 0.0, 2025-02-21 12:03:15.654
73.0, -487.2753051267937, -584.8549048206769, -401.66712519107386, -411.67883737245575, -0.43200002051889896, 0.0, 0.9120000433176756, 0.0, 0.0, 0.0, 0.0, 0.0, 1.740160995654509E9, 0.0, 2025-02-21 12:03:15.654
73.0, -492.3166902670637, -582.2818536511622, -380.87702133739367, -377.02866428298876, -0.43200002051889896, 0.0, 0.9120000433176756, 0.0, 0.0, 0.0, 0.0, 0.0, 1.74016099565452E9, 0.0, 2025-02-21 12:03:15.654
74.0, -490.0914497934282, -572.6254319655709, -361.1602687709965, -366.2951514101587, -0.43200002051889896, 0.0, 0.9120000433176756, 0.0, 0.0, 0.0, 0.0, 0.0, 1.740160995683295E9, 0.0, 2025-02-21 12:03:15.683
74.0, -494.085662946105, -581.3842776617967, -396.67061885027215, -398.9070790237747, -0.43200002051889896, 0.0, 0.9120000433176756, 0.0, 0.0, 0.0, 0.0, 0.0, 1.740160995683328E9, 0.0, 2025-02-21 12:03:15.683
75.0, -488.1616614162922, -575.639791329857, -358.02623260812834, -367.2600455987267, -0.43200002051889896, 0.0, 0.9120000433176756, 0.0, 0.0, 0.0, 0.0, 0.0, 1.740160995683356E9, 0.0, 2025-02-21 12:03:15.683
75.0, -486.7217999333516, -582.4351895493455, -372.4921656367369, -372.88859503204003, -0.43200002051889896, 0.0, 0.9120000433176756, 0.0, 0.0, 0.0, 0.0, 0.0, 1.740160995683372E9, 0.0, 2025-02-21 12:03:15.683
76.0, -482.8547433791682, -567.9542969209142, -376.6359747876413, -375.2297724043019, -0.43200002051889896, 0.0, 0.9120000433176756, 0.0, 0.0, 0.0, 0.0, 0.0, 1.740160995684953E9, 0.0, 2025-02-21 12:03:15.684
76.0, -482.5331119829789, -566.7350895353593, -347.778906729538, -347.2179217361845, -0.43200002051889896, 0.0, 0.9120000433176756, 0.0, 0.0, 0.0, 0.0, 0.0, 1.740160995685001E9, 0.0, 2025-02-21 12:03:15.685
77.0, -499.18314658571035, -589.9748278600164, -387.55274275830016, -391.18044571531937, -0.43200002051889896, 0.0, 0.9120000433176756, 0.0, 0.0, 0.0, 0.0, 0.0, 1.74016099571398E9, 0.0, 2025-02-21 12:03:15.713
77.0, -487.24912582710385, -567.6251857248135, -350.0041472031735, -346.8214923408814, -0.43200002051889896, 0.0, 0.9120000433176756, 0.0, 0.0, 0.0, 0.0, 0.0, 1.740160995714005E9, 0.0, 2025-02-21 12:03:15.714
78.0, -469.1517499415204, -550.9340122225694, -331.1700110263191, -333.8029005951248, -0.43200002051889896, 0.0, 0.9120000433176756, 0.0, 0.0, 0.0, 0.0, 0.0, 1.740160995714036E9, 0.0, 2025-02-21 12:03:15.714
78.0, -478.06393153592944, -560.3697798107751, -371.1981602520682, -377.21191938081756, -0.43200002051889896, 0.0, 0.9120000433176756, 0.0, 0.0, 0.0, 0.0, 0.0, 1.740160995714096E9, 0.0, 2025-02-21 12:03:15.714
79.0, -464.3310188986361, -545.4139198879711, -330.86333922995254, -323.3536201189272, -0.43200002051889896, 0.0, 0.9120000433176756, 0.0, 0.0, 0.0, 0.0, 0.0, 1.740160995714117E9, 0.0, 2025-02-21 12:03:15.714
79.0, -477.6787218404934, -554.3747201818042, -352.12467047804967, -350.82692519342527, -0.43200002051889896, 0.0, 0.9120000433176756, 0.0, 0.0, 0.0, 0.0, 0.0, 1.740160995714127E9, 0.0, 2025-02-21 12:03:15.714
80.0, -474.1893951818347, -550.1860322314315, -340.28040731837973, -351.4776677857153, -0.43200002051889896, 0.0, 0.9120000433176756, 0.0, 0.0, 0.0, 0.0, 0.0, 1.740160995742243E9, 0.0, 2025-02-21 12:03:15.742
80.0, -466.79187306948006, -539.9013073532842, -321.8427005368285, -320.56739465193823, -0.43200002051889896, 0.0, 0.9120000433176756, 0.0, 0.0, 0.0, 0.0, 0.0, 1.740160995742276E9, 0.0, 2025-02-21 12:03:15.742
81.0, -474.1968749817461, -551.4837775160559, -357.6634623124264, -373.24388552783057, -0.43200002051889896, 0.0, 0.9120000433176756, 0.0, 0.0, 0.0, 0.0, 0.0, 1.74016099574338E9, 0.0, 2025-02-21 12:03:15.743
81.0, -469.4060631385073, -548.3647009530105, -328.3950052591972, -341.53701370349154, -0.43200002051889896, 0.0, 0.9120000433176756, 0.0, 0.0, 0.0, 0.0, 0.0, 1.740160995743399E9, 0.0, 2025-02-21 12:03:15.743
82.0, -475.4908803664148, -551.0686486209743, -334.34144618874416, -335.9608228695579, -0.43200002051889896, 0.0, 0.9120000433176756, 0.0, 0.0, 0.0, 0.0, 0.0, 1.740160995745546E9, 0.0, 2025-02-21 12:03:15.745
82.0, -473.98744058422744, -552.9161591990851, -367.65273509407416, -366.39238880900666, -0.43200002051889896, 0.0, 0.9120000433176756, 0.0, 0.0, 0.0, 0.0, 0.0, 1.740160995745579E9, 0.0, 2025-02-21 12:03:15.745
83.0, -471.8556976094842, -544.9277328937314, -329.41225804714486, -328.84379325388, -0.43200002051889896, 0.0, 0.9120000433176756, 0.0, 0.0, 0.0, 0.0, 0.0, 1.740160995745613E9, 0.0, 2025-02-21 12:03:15.745
83.0, -468.09335825406015, -553.0732349972241, -353.1905419654213, -353.6729890597053, -0.43200002051889896, 0.0, 0.9120000433176756, 0.0, 0.0, 0.0, 0.0, 0.0, 1.740160995745625E9, 0.0, 2025-02-21 12:03:15.745
84.0, -477.031719148159, -550.5450626271777, -352.46126147406176, -356.45921452669427, -0.43200002051889896, 0.0, 0.9120000433176756, 0.0, 0.0, 0.0, 0.0, 0.0, 1.740160995773142E9, 0.0, 2025-02-21 12:03:15.773
84.0, -475.35998386796564, -552.1943585076369, -337.49044195143506, -346.922469639685, -0.43200002051889896, 0.0, 0.9120000433176756, 0.0, 0.0, 0.0, 0.0, 0.0, 1.740160995773173E9, 0.0, 2025-02-21 12:03:15.773
85.0, -478.6810150286183, -561.4543507979251, -385.1629466866143, -381.70353922760114, -0.43200002051889896, 0.0, 0.9120000433176756, 0.0, 0.0, 0.0, 0.0, 0.0, 1.740160995773204E9, 0.0, 2025-02-21 12:03:15.773
85.0, -469.0694721424952, -547.5232234629802, -345.49756775656715, -342.1877562957816, -0.43200002051889896, 0.0, 0.9120000433176756, 0.0, 0.0, 0.0, 0.0, 0.0, 1.740160995773214E9, 0.0, 2025-02-21 12:03:15.773
86.0, -464.6376906950027, -543.3607148122974, -348.2276947242208, -335.87106527062133, -0.43200002051889896, 0.0, 0.9120000433176756, 0.0, 0.0, 0.0, 0.0, 0.0, 1.740160995802402E9, 0.0, 2025-02-21 12:03:15.802
86.0, -462.921076615341, -547.5643623624928, -370.32676356239244, -368.43063428485766, -0.43200002051889896, 0.0, 0.9120000433176756, 0.0, 0.0, 0.0, 0.0, 0.0, 1.740160995802476E9, 0.0, 2025-02-21 12:03:15.802
87.0, -460.4041239451617, -545.3653011885472, -350.39683669852093, -354.2564134527929, -0.43200002051889896, 0.0, 0.9120000433176756, 0.0, 0.0, 0.0, 0.0, 0.0, 1.740160995803458E9, 0.0, 2025-02-21 12:03:15.803
87.0, -460.57241944316775, -556.498983356636, -373.3897416261025, -369.99765236629173, -0.43200002051889896, 0.0, 0.9120000433176756, 0.0, 0.0, 0.0, 0.0, 0.0, 1.740160995803476E9, 0.0, 2025-02-21 12:03:15.803
88.0, -446.1663248138502, -529.1416151807643, -343.05541308550164, -344.45413566892967, -0.43200002051889896, 0.0, 0.9120000433176756, 0.0, 0.0, 0.0, 0.0, 0.0, 1.74016099580611E9, 0.0, 2025-02-21 12:03:15.806
88.0, -438.07692120969296, -526.1122962166555, -331.4392838231288, -329.1803842498921, -0.43200002051889896, 0.0, 0.9120000433176756, 0.0, 0.0, 0.0, 0.0, 0.0, 1.740160995806136E9, 0.0, 2025-02-21 12:03:15.806
89.0, -419.70279272738844, -510.47203460196033, -363.6996608409099, -366.13807561201975, -0.43200002051889896, 0.0, 0.9120000433176756, 0.0, 0.0, 0.0, 0.0, 0.0, 1.740160995806167E9, 0.0, 2025-02-21 12:03:15.806
89.0, -410.68963383417577, -506.0776521540247, -321.9100187360309, -319.9390914593823, -0.43200002051889896, 0.0, 0.9120000433176756, 0.0, 0.0, 0.0, 0.0, 0.0, 1.740160995806178E9, 0.0, 2025-02-21 12:03:15.806
90.0, -380.04863349720836, -478.55572838010266, -317.74003028543666, -312.26107685035095, -0.43200002051889896, 0.0, 0.9120000433176756, 0.0, 0.0, 0.0, 0.0, 0.0, 1.740160995834787E9, 0.0, 2025-02-21 12:03:15.834
90.0, -361.96247731149197, -468.1401070035063, -314.37786022527143, -326.480176481884, -0.43200002051889896, 0.0, 0.9120000433176756, 0.0, 0.0, 0.0, 0.0, 0.0, 1.740160995834816E9, 0.0, 2025-02-21 12:03:15.834
91.0, -340.47301216609776, -450.7084333100356, -287.0092723495327, -292.50692528439686, -0.43200002051889896, 0.0, 0.9120000433176756, 0.0, 0.0, 0.0, 0.0, 0.0, 1.740160995834859E9, 0.0, 2025-02-21 12:03:15.834
91.0, -299.78290064819157, -418.56399319088086, -290.4798995084129, -283.2731122937985, -0.43200002051889896, 0.0, 0.9120000433176756, 0.0, 0.0, 0.0, 0.0, 0.0, 1.740160995834905E9, 0.0, 2025-02-21 12:03:15.834
92.0, -271.66259288135916, -397.89356613578275, -247.49722931766883, -243.97424355940893, -0.43200002051889896, 0.0, 0.9120000433176756, 0.0, 0.0, 0.0, 0.0, 0.0, 1.74016099586381E9, 0.0, 2025-02-21 12:03:15.863
92.0, -254.72832588199526, -393.77219638461247, -234.54969567107037, -226.19475917005911, -0.43200002051889896, 0.0, 0.9120000433176756, 0.0, 0.0, 0.0, 0.0, 0.0, 1.740160995863842E9, 0.0, 2025-02-21 12:03:15.863
93.0, -235.98020740412176, -378.80885666189715, -259.4013308766298, -257.5874793981202, -0.43200002051889896, 0.0, 0.9120000433176756, 0.0, 0.0, 0.0, 0.0, 0.0, 1.740160995863873E9, 0.0, 2025-02-21 12:03:15.863
93.0, -221.83590577170253, -367.3872021972202, -218.8308961573057, -213.69601351814345, -0.43200002051889896, 0.0, 0.9120000433176756, 0.0, 0.0, 0.0, 0.0, 0.0, 1.740160995863883E9, 0.0, 2025-02-21 12:03:15.863
94.0, -220.85605198331177, -367.83973009185866, -226.871681062039, -229.04082303633913, -0.43200002051889896, 0.0, 0.9120000433176756, 0.0, 0.0, 0.0, 0.0, 0.0, 1.740160995866449E9, 0.0, 2025-02-21 12:03:15.866
94.0, -214.65155795682222, -363.1573753473349, -232.60494769411162, -243.34594036685303, -0.43200002051889896, 0.0, 0.9120000433176756, 0.0, 0.0, 0.0, 0.0, 0.0, 1.740160995866471E9, 0.0, 2025-02-21 12:03:15.866
95.0, -230.2544205719605, -372.10321604134515, -215.84271609270945, -215.20693310024217, -0.43200002051889896, 0.0, 0.9120000433176756, 0.0, 0.0, 0.0, 0.0, 0.0, 1.7401609958665E9, 0.0, 2025-02-21 12:03:15.866
95.0, -247.87308926321566, -385.21904518594965, -256.1775371148251, -254.52450133441016, -0.43200002051889896, 0.0, 0.9120000433176756, 0.0, 0.0, 0.0, 0.0, 0.0, 1.74016099586651E9, 0.0, 2025-02-21 12:03:15.866
96.0, -268.92124621383846, -406.8468866297044, -247.71040361514315, -252.35535936011001, -0.43200002051889896, 0.0, 0.9120000433176756, 0.0, 0.0, 0.0, 0.0, 0.0, 1.740160995894659E9, 0.0, 2025-02-21 12:03:15.894
96.0, -278.7908421969041, -414.9549897336401, -241.84998038457707, -239.62100001098588, -0.43200002051889896, 0.0, 0.9120000433176756, 0.0, 0.0, 0.0, 0.0, 0.0, 1.740160995894695E9, 0.0, 2025-02-21 12:03:15.894
97.0, -307.146763660945, -439.5672713420354, -293.9355670674704, -297.8250630213879, -0.43200002051889896, 0.0, 0.9120000433176756, 0.0, 0.0, 0.0, 0.0, 0.0, 1.740160995894727E9, 0.0, 2025-02-21 12:03:15.894
97.0, -322.3344973810017, -448.62530903471634, -279.443454739172, -279.383616339881, -0.43200002051889896, 0.0, 0.9120000433176756, 0.0, 0.0, 0.0, 0.0, 0.0, 1.740160995894738E9, 0.0, 2025-02-21 12:03:15.894
98.0, -343.40883363131434, -463.3530350602232, -286.91577485064045, -293.7223927699961, -0.43200002051889896, 0.0, 0.9120000433176756, 0.0, 0.0, 0.0, 0.0, 0.0, 1.740160995924075E9, 0.0, 2025-02-21 12:03:15.924
98.0, -363.4285180941224, -481.2858553477563, -310.342508173082, -314.9051861190237, -0.43200002051889896, 0.0, 0.9120000433176756, 0.0, 0.0, 0.0, 0.0, 0.0, 1.740160995924105E9, 0.0, 2025-02-21 12:03:15.924
99.0, -385.7781602293253, -493.12637860747054, -299.3472023033537, -289.14101532427594, -0.43200002051889896, 0.0, 0.9120000433176756, 0.0, 0.0, 0.0, 0.0, 0.0, 1.740160995924134E9, 0.0, 2025-02-21 12:03:15.924
99.0, -392.9363287445158, -500.80065331654623, -321.7716424376704, -312.8370214435272, -0.43200002051889896, 0.0, 0.9120000433176756, 0.0, 0.0, 0.0, 0.0, 0.0, 1.740160995924148E9, 0.0, 2025-02-21 12:03:15.924
100.0, -402.20380083471537, -509.9185294085182, -301.381707879249, -307.2720503094606, -0.43200002051889896, 0.0, 0.9120000433176756, 0.0, 0.0, 0.0, 0.0, 0.0, 1.740160995926194E9, 0.0, 2025-02-21 12:03:15.926
100.0, -422.0439700996503, -520.9287948780693, -301.59488217672333, -304.8598148380406, -0.43200002051889896, 0.0, 0.9120000433176756, 0.0, 0.0, 0.0, 0.0, 0.0, 1.740160995926212E9, 0.0, 2025-02-21 12:03:15.926
0.0, -421.481115156319, -518.4249318577349, -325.3170675956644, -331.5196916721761, -0.43200002051889896, 0.0, 0.9120000433176756, 0.0, 0.0, 0.0, 0.0, 0.0, 1.740160995926234E9, 0.0, 2025-02-21 12:03:15.926
1.0, -427.5247934847139, -512.9459784226492, -296.605855635833, -304.4128967933357, -0.43200002051889896, 0.0, 0.9120000433176756, 0.0, 0.0, 0.0, 0.0, 0.0, 1.74016099595447E9, 0.0, 2025-02-21 12:03:15.954
1.0, -431.4404687383212, -525.6541584720835, -310.51828347099945, -315.9205689569935, -0.43200002051889896, 0.0, 0.9120000433176756, 0.0, 0.0, 0.0, 0.0, 0.0, 1.740160995954503E9, 0.0, 2025-02-21 12:03:15.954
2.0, -447.58561684703454, -532.4719960913062, -319.5464019640349, -323.36296986881644, -0.43200002051889896, 0.0, 0.9120000433176756, 0.0, 0.0, 0.0, 0.0, 0.0, 1.740160995954528E9, 0.0, 2025-02-21 12:03:15.954
2.0, -458.11343522230163, -532.9843623852357, -324.19883750891313, -324.3465635571629, -0.43200002051889896, 0.0, 0.9120000433176756, 0.0, 0.0, 0.0, 0.0, 0.0, 1.740160995954539E9, 0.0, 2025-02-21 12:03:15.954
3.0, -461.4269865830429, -544.8996836440638, -341.7314885011874, -346.1726196985692, -0.43200002051889896, 0.0, 0.9120000433176756, 0.0, 0.0, 0.0, 0.0, 0.0, 1.740160995954557E9, 0.0, 2025-02-21 12:03:15.954
3.0, -474.318421730306, -558.8195912791416, -343.5229005799629, -348.43899907171726, -0.43200002051889896, 0.0, 0.9120000433176756, 0.0, 0.0, 0.0, 0.0, 0.0, 1.740160995954567E9, 0.0, 2025-02-21 12:03:15.954
4.0, -480.74356985418126, -564.3920422131196, -345.26943385927007, -346.37083439622074, -0.43200002051889896, 0.0, 0.9120000433176756, 0.0, 0.0, 0.0, 0.0, 0.0, 1.740160995983512E9, 0.0, 2025-02-21 12:03:15.983
4.0, -486.9966825800948, -571.2697182316333, -360.49830647883937, -363.81372778955847, -0.43200002051889896, 0.0, 0.9120000433176756, 0.0, 0.0, 0.0, 0.0, 0.0, 1.740160995983549E9, 0.0, 2025-02-21 12:03:15.983
5.0, -483.30540132382885, -562.5520114349201, -352.2331275767647, -357.3212614664808, -0.43200002051889896, 0.0, 0.9120000433176756, 0.0, 0.0, 0.0, 0.0, 0.0, 1.74016099598358E9, 0.0, 2025-02-21 12:03:15.983
5.0, -492.08294651983306, -575.7501183785498, -371.44125374918804, -369.30016102455556, -0.43200002051889896, 0.0, 0.9120000433176756, 0.0, 0.0, 0.0, 0.0, 0.0, 1.740160995983595E9, 0.0, 2025-02-21 12:03:15.983
6.0, -501.38407770963386, -576.688833267428, -361.6053168657236, -368.07721373904496, -0.43200002051889896, 0.0, 0.9120000433176756, 0.0, 0.0, 0.0, 0.0, 0.0, 1.740160995983616E9, 0.0, 2025-02-21 12:03:15.983
6.0, -502.4387294971384, -573.2256859084591, -358.886409597937, -375.168064055033, -0.43200002051889896, 0.0, 0.9120000433176756, 0.0, 0.0, 0.0, 0.0, 0.0, 1.74016099598363E9, 0.0, 2025-02-21 12:03:15.983
7.0, -509.27900651609525, -586.9473788458854, -371.1570213525556, -389.5629389844835, -0.43200002051889896, 0.0, 0.9120000433176756, 0.0, 0.0, 0.0, 0.0, 0.0, 1.740160996012146E9, 0.0, 2025-02-21 12:03:16.012
7.0, -497.89849095093086, -581.5581830097362, -353.5570521610789, -374.9137508580461, -0.43200002051889896, 0.0, 0.9120000433176756, 0.0, 0.0, 0.0, 0.0, 0.0, 1.740160996012186E9, 0.0, 2025-02-21 12:03:16.012
8.0, -503.0371134900488, -582.8409686945379, -362.5627312543802, -391.1075176661834, -0.43200002051889896, 0.0, 0.9120000433176756, 0.0, 0.0, 0.0, 0.0, 0.0, 1.740160996013054E9, 0.0, 2025-02-21 12:03:16.013
8.0, -503.45972218504176, -577.182500061579, -382.58989551709965, -398.1834083823487, -0.43200002051889896, 0.0, 0.9120000433176756, 0.0, 0.0, 0.0, 0.0, 0.0, 1.740160996013096E9, 0.0, 2025-02-21 12:03:16.013
9.0, -506.6947356467135, -580.282877124846, -374.0217847186141, -378.9117039106786, -0.43200002051889896, 0.0, 0.9120000433176756, 0.0, 0.0, 0.0, 0.0, 0.0, 1.740160996013153E9, 0.0, 2025-02-21 12:03:16.013
9.0, -511.0778983947821, -583.671226484701, -370.91766775539145, -377.8196531236172, -0.43200002051889896, 0.0, 0.9120000433176756, 0.0, 0.0, 0.0, 0.0, 0.0, 1.740160996013164E9, 0.0, 2025-02-21 12:03:16.013
10.0, -518.6025771056302, -593.3987062694505, -385.1330274869688, -388.1567366011441, -0.43200002051889896, 0.0, 0.9280000440776348, 0.0, 0.0, 0.0, 0.0, 0.0, 1.740160996041986E9, 0.0, 2025-02-21 12:03:16.041
10.0, -509.20046861702576, -588.966924821958, -375.06521680625156, -379.7644011005759, -0.43200002051889896, 0.0, 0.9280000440776348, 0.0, 0.0, 0.0, 0.0, 0.0, 1.740160996042016E9, 0.0, 2025-02-21 12:03:16.042
11.0, -527.0584909054451, -596.6299798311666, -394.99514367012307, -400.2927119573578, -0.43200002051889896, 0.0, 0.9280000440776348, 0.0, 0.0, 0.0, 0.0, 0.0, 1.740160996043911E9, 0.0, 2025-02-21 12:03:16.043
11.0, -514.8290180503391, -589.5540891150013, -389.63586703361943, -389.13659038953483, -0.43200002051889896, 0.0, 0.9280000440776348, 0.0, 0.0, 0.0, 0.0, 0.0, 1.740160996043938E9, 0.0, 2025-02-21 12:03:16.043
12.0, -523.8571365433745, -598.1745585128665, -382.9751052125357, -380.23936839494854, -0.43200002051889896, 0.0, 0.9280000440776348, 0.0, 0.0, 0.0, 0.0, 0.0, 1.740160996043966E9, 0.0, 2025-02-21 12:03:16.043
12.0, -517.4357283194549, -593.537082567811, -396.9810305465944, -400.2964518573135, -0.43200002051889896, 0.0, 0.9280000440776348, 0.0, 0.0, 0.0, 0.0, 0.0, 1.740160996043977E9, 0.0, 2025-02-21 12:03:16.043
13.0, -521.0596913765185, -597.082507725805, -387.40688666002825, -394.7352206232026, -0.43200002051889896, 0.0, 0.9280000440776348, 0.0, 0.0, 0.0, 0.0, 0.0, 1.74016099607193E9, 0.0, 2025-02-21 12:03:16.071
13.0, -520.6894412809052, -597.7781291175634, -384.95725218905136, -384.24106134753674, -0.43200002051889896, 0.0, 0.9280000440776348, 0.0, 0.0, 0.0, 0.0, 0.0, 1.740160996071965E9, 0.0, 2025-02-21 12:03:16.071
14.0, -521.1157898758538, -596.480383832939, -386.48313137097284, -387.9547820035368, -0.43200002051889896, 0.0, 0.9280000440776348, 0.0, 0.0, 0.0, 0.0, 0.0, 1.740160996072895E9, 0.0, 2025-02-21 12:03:16.072
14.0, -525.9178214189596, -594.8049086527899, -385.3910805839114, -386.72061501815915, -0.43200002051889896, 0.0, 0.9280000440776348, 0.0, 0.0, 0.0, 0.0, 0.0, 1.740160996072913E9, 0.0, 2025-02-21 12:03:16.072
15.0, -520.4538275836967, -600.9682637797669, -397.3251013425179, -402.36461653281003, -0.43200002051889896, 0.0, 0.9280000440776348, 0.0, 0.0, 0.0, 0.0, 0.0, 1.740160996072936E9, 0.0, 2025-02-21 12:03:16.072
15.0, -523.6963208452798, -599.6181598957628, -388.5774753461592, -385.1535969367251, -0.43200002051889896, 0.0, 0.9280000440776348, 0.0, 0.0, 0.0, 0.0, 0.0, 1.740160996072946E9, 0.0, 2025-02-21 12:03:16.072
16.0, -525.3082177261822, -600.2053241888061, -381.0191375357099, -393.1195838423446, -0.43200002051889896, 0.0, 0.9280000440776348, 0.0, 0.0, 0.0, 0.0, 0.0, 1.740160996102026E9, 0.0, 2025-02-21 12:03:16.102
16.0, -528.3225770904683, -605.9086716212332, -396.3115884545259, -405.9362209904939, -0.43200002051889896, 0.0, 0.9280000440776348, 0.0, 0.0, 0.0, 0.0, 0.0, 1.740160996102061E9, 0.0, 2025-02-21 12:03:16.102
17.0, -528.0869633932598, -596.1737120365724, -389.0524426405318, -399.1969212703407, -0.43200002051889896, 0.0, 0.9280000440776348, 0.0, 0.0, 0.0, 0.0, 0.0, 1.74016099610323E9, 0.0, 2025-02-21 12:03:16.103
17.0, -532.8067171373405, -599.0908340020105, -389.3927735364996, -393.80024563428015, -0.43200002051889896, 0.0, 0.9280000440776348, 0.0, 0.0, 0.0, 0.0, 0.0, 1.740160996103247E9, 0.0, 2025-02-21 12:03:16.103
18.0, -523.9057552427985, -592.8938197754323, -388.9739047414623, -393.56837183702737, -0.43200002051889896, 0.0, 0.9280000440776348, 0.0, 0.0, 0.0, 0.0, 0.0, 1.740160996103271E9, 0.0, 2025-02-21 12:03:16.103
18.0, -520.8577367789112, -592.5983676789328, -383.99235800048336, -381.1369443843141, -0.43200002051889896, 0.0, 0.9280000440776348, 0.0, 0.0, 0.0, 0.0, 0.0, 1.740160996103282E9, 0.0, 2025-02-21 12:03:16.103
19.0, -524.6574751338921, -599.3414072990417, -392.8671405953355, -395.0755515191704, -0.43200002051889896, 0.0, 0.9280000440776348, 0.0, 0.0, 0.0, 0.0, 0.0, 1.740160996131934E9, 0.0, 2025-02-21 12:03:16.131
19.0, -522.2863785619847, -594.019529662095, -388.7308112443425, -384.3756977459416, -0.43200002051889896, 0.0, 0.9280000440776348, 0.0, 0.0, 0.0, 0.0, 0.0, 1.74016099613196E9, 0.0, 2025-02-21 12:03:16.131
20.0, -522.7912650560029, -601.3123345756903, -395.8067019605078, -396.7510266993195, -0.43200002051889896, 0.0, 0.9120000433176756, 0.0, 0.0, 0.0, 0.0, 0.0, 1.74016099613289E9, 0.0, 2025-02-21 12:03:16.132
20.0, -525.4129349249415, -596.0802145376801, -393.51788318762556, -388.7065018946305, -0.43200002051889896, 0.0, 0.9120000433176756, 0.0, 0.0, 0.0, 0.0, 0.0, 1.740160996132906E9, 0.0, 2025-02-21 12:03:16.132
21.0, -515.8874097377993, -592.4113726811484, -375.77579779783264, -375.2204226544127, -0.43200002051889896, 0.0, 0.9120000433176756, 0.0, 0.0, 0.0, 0.0, 0.0, 1.740160996132929E9, 0.0, 2025-02-21 12:03:16.132
21.0, -513.5649318653159, -593.6231002667919, -385.2340047857724, -389.6751359831542, -0.43200002051889896, 0.0, 0.9120000433176756, 0.0, 0.0, 0.0, 0.0, 0.0, 1.74016099613294E9, 0.0, 2025-02-21 12:03:16.132
22.0, -520.6894412809052, -596.2784292353317, -383.7941433028318, -379.23707520682365, -0.43200002051889896, 0.0, 0.9120000433176756, 0.0, 0.0, 0.0, 0.0, 0.0, 1.740160996161907E9, 0.0, 2025-02-21 12:03:16.161
22.0, -519.967640589457, -595.3060552468523, -378.44608636619523, -384.1887027481571, -0.43200002051889896, 0.0, 0.9120000433176756, 0.0, 0.0, 0.0, 0.0, 0.0, 1.740160996161932E9, 0.0, 2025-02-21 12:03:16.161
23.0, -517.54418541817, -593.6679790662602, -392.95689819427207, -390.83450496941805, -0.43200002051889896, 0.0, 0.9120000433176756, 0.0, 0.0, 0.0, 0.0, 0.0, 1.740160996163291E9, 0.0, 2025-02-21 12:03:16.163
23.0, -514.8963362495415, -587.1867324430496, -377.73550537461415, -377.2923272298649, -0.43200002051889896, 0.0, 0.9120000433176756, 0.0, 0.0, 0.0, 0.0, 0.0, 1.740160996163306E9, 0.0, 2025-02-21 12:03:16.163
24.0, -517.5329657183029, -591.1921652955934, -381.7184988274239, -381.0771059850231, -0.43200002051889896, 0.0, 0.9120000433176756, 0.0, 0.0, 0.0, 0.0, 0.0, 1.740160996163339E9, 0.0, 2025-02-21 12:03:16.163
24.0, -520.9549741777591, -583.2112187901512, -375.88425489654765, -375.85994554683566, -0.43200002051889896, 0.0, 0.9120000433176756, 0.0, 0.0, 0.0, 0.0, 0.0, 1.740160996163349E9, 0.0, 2025-02-21 12:03:16.163
25.0, -519.690887992736, -585.227024866268, -373.24388552783057, -372.52769468631595, -0.43200002051889896, 0.0, 0.9120000433176756, 0.0, 0.0, 0.0, 0.0, 0.0, 1.740160996192042E9, 0.0, 2025-02-21 12:03:16.192
25.0, -512.6673558759503, -580.3053165245801, -375.3419694029726, -380.34782549366355, -0.43200002051889896, 0.0, 0.9120000433176756, 0.0, 0.0, 0.0, 0.0, 0.0, 1.740160996192069E9, 0.0, 2025-02-21 12:03:16.192
26.0, -513.2395605691709, -579.8041699305177, -380.7498647389002, -375.964662745595, -0.43200002051889896, 0.0, 0.9120000433176756, 0.0, 0.0, 0.0, 0.0, 0.0, 1.740160996195044E9, 0.0, 2025-02-21 12:03:16.195
26.0, -507.4165363381617, -580.3501953240484, -373.58047652384266, -375.8150667473674, -0.43200002051889896, 0.0, 0.9120000433176756, 0.0, 0.0, 0.0, 0.0, 0.0, 1.740160996195062E9, 0.0, 2025-02-21 12:03:16.195
27.0, -510.83106499770656, -589.7710033124313, -382.59363541705534, -390.24360077641904, -0.43200002051889896, 0.0, 0.9120000433176756, 0.0, 0.0, 0.0, 0.0, 0.0, 1.740160996196658E9, 0.0, 2025-02-21 12:03:16.196
27.0, -513.1498029702343, -587.096974844113, -368.28851808654144, -375.05586705636233, -0.43200002051889896, 0.0, 0.9120000433176756, 0.0, 0.0, 0.0, 0.0, 0.0, 1.740160996196673E9, 0.0, 2025-02-21 12:03:16.196
28.0, -515.9622077369131, -591.6708724899217, -380.69376623956487, -386.39150382205844, -0.43200002051889896, 0.0, 0.9120000433176756, 0.0, 0.0, 0.0, 0.0, 0.0, 1.740160996221894E9, 0.0, 2025-02-21 12:03:16.221
28.0, -510.9245624965988, -591.921445786953, -373.39348152605817, -371.9218308934942, -0.43200002051889896, 0.0, 0.9120000433176756, 0.0, 0.0, 0.0, 0.0, 0.0, 1.740160996221918E9, 0.0, 2025-02-21 12:03:16.221
29.0, -516.6353897289373, -593.3089486705139, -377.7542048743926, -380.5198608916253, -0.43200002051889896, 0.0, 0.9120000433176756, 0.0, 0.0, 0.0, 0.0, 0.0, 1.740160996223188E9, 0.0, 2025-02-21 12:03:16.223
29.0, -511.4743277900852, -584.8866939703003, -384.2055322979577, -378.42551691643894, -0.43200002051889896, 0.0, 0.9120000433176756, 0.0, 0.0, 0.0, 0.0, 0.0, 1.740160996223202E9, 0.0, 2025-02-21 12:03:16.223
30.0, -512.1624693819322, -587.6841391371563, -370.150988264475, -372.23598248977214, -0.43200002051889896, 0.0, 0.9120000433176756, 0.0, 0.0, 0.0, 0.0, 0.0, 1.740160996224528E9, 0.0, 2025-02-21 12:03:16.224
30.0, -509.510880313348, -577.5901491567492, -362.854443450924, -370.34359311219305, -0.43200002051889896, 0.0, 0.9120000433176756, 0.0, 0.0, 0.0, 0.0, 0.0, 1.74016099622455E9, 0.0, 2025-02-21 12:03:16.224
31.0, -514.7392604514025, -583.6263476852328, -375.76457809796557, -379.1884565073997, -0.43200002051889896, 0.0, 0.9120000433176756, 0.0, 0.0, 0.0, 0.0, 0.0, 1.740160996253098E9, 0.0, 2025-02-21 12:03:16.253
31.0, -507.75312733417377, -584.3406685767695, -369.2272329754196, -376.1890567429364, -0.43200002051889896, 0.0, 0.9120000433176756, 0.0, 0.0, 0.0, 0.0, 0.0, 1.740160996253123E9, 0.0, 2025-02-21 12:03:16.253
32.0, -513.2283408693038, -588.6826924253255, -378.06087667075917, -387.2479409119114, -0.4480000212788582, 0.0, 0.9120000433176756, 0.0, 0.0, 0.0, 0.0, 0.0, 1.740160996253155E9, 0.0, 2025-02-21 12:03:16.253
32.0, -506.61245784768835, -581.838675506413, -371.72922604577616, -384.8506650403142, -0.4480000212788582, 0.0, 0.9120000433176756, 0.0, 0.0, 0.0, 0.0, 0.0, 1.740160996253166E9, 0.0, 2025-02-21 12:03:16.253
33.0, -510.17658250546083, -579.3404223360121, -367.02069200156257, -374.71553616039455, -0.4480000212788582, 0.0, 0.9120000433176756, 0.0, 0.0, 0.0, 0.0, 0.0, 1.740160996253184E9, 0.0, 2025-02-21 12:03:16.253
33.0, -510.6739891995676, -586.2592372540385, -381.7521579270251, -390.6998685710132, -0.4480000212788582, 0.0, 0.9120000433176756, 0.0, 0.0, 0.0, 0.0, 0.0, 1.740160996253195E9, 0.0, 2025-02-21 12:03:16.253
34.0, -506.1898491526954, -579.4413996348158, -370.6446550586261, -367.4713499462232, -0.4480000212788582, 0.0, 0.9120000433176756, 0.0, 0.0, 0.0, 0.0, 0.0, 1.740160996282281E9, 0.0, 2025-02-21 12:03:16.282
34.0, -504.13664407702163, -583.1027616914362, -362.8507035509683, -366.82808715384454, -0.4480000212788582, 0.0, 0.9120000433176756, 0.0, 0.0, 0.0, 0.0, 0.0, 1.74016099628231E9, 0.0, 2025-02-21 12:03:16.282
35.0, -508.968594819773, -583.0092641925439, -375.6860401988961, -389.0318731907755, -0.4480000212788582, 0.0, 0.9120000433176756, 0.0, 0.0, 0.0, 0.0, 0.0, 1.740160996284546E9, 0.0, 2025-02-21 12:03:16.284
35.0, -508.1458168295212, -581.6591603085399, -363.0863172481768, -368.4063249351457, -0.4480000212788582, 0.0, 0.9120000433176756, 0.0, 0.0, 0.0, 0.0, 0.0, 1.740160996284563E9, 0.0, 2025-02-21 12:03:16.284
36.0, -515.1020307471044, -582.0443700039759, -373.58047652384266, -368.08843343891203, -0.4480000212788582, 0.0, 0.9120000433176756, 0.0, 0.0, 0.0, 0.0, 0.0, 1.740160996284621E9, 0.0, 2025-02-21 12:03:16.284
36.0, -501.34667871007696, -580.2080791257322, -367.304924398195, -373.1036392794922, -0.4480000212788582, 0.0, 0.9120000433176756, 0.0, 0.0, 0.0, 0.0, 0.0, 1.740160996284635E9, 0.0, 2025-02-21 12:03:16.284
37.0, -499.8394990279339, -583.345855188556, -371.99849884258583, -364.4682102818042, -0.4480000212788582, 0.0, 0.9120000433176756, 0.0, 0.0, 0.0, 0.0, 0.0, 1.740160996313119E9, 0.0, 2025-02-21 12:03:16.313
37.0, -502.09465870121494, -574.8001837898046, -375.77579779783264, -371.9517500931397, -0.4480000212788582, 0.0, 0.9120000433176756, 0.0, 0.0, 0.0, 0.0, 0.0, 1.740160996313145E9, 0.0, 2025-02-21 12:03:16.313
38.0, -501.1746433121152, -581.042076815851, -366.9010152029805, -373.08119987975806, -0.4480000212788582, 0.0, 0.9120000433176756, 0.0, 0.0, 0.0, 0.0, 0.0, 1.740160996313167E9, 0.0, 2025-02-21 12:03:16.313
38.0, -502.12831780081615, -578.6373211443424, -368.5914499829523, -365.48172316979617, -0.4480000212788582, 0.0, 0.9120000433176756, 0.0, 0.0, 0.0, 0.0, 0.0, 1.740160996313178E9, 0.0, 2025-02-21 12:03:16.313
39.0, -503.4784216848202, -579.0823692390695, -371.646948246751, -378.68357001338154, -0.4480000212788582, 0.0, 0.9120000433176756, 0.0, 0.0, 0.0, 0.0, 0.0, 1.740160996313195E9, 0.0, 2025-02-21 12:03:16.313
39.0, -514.1932350578718, -581.9845316046849, -363.9689336377196, -373.75812177173793, -0.4480000212788582, 0.0, 0.9120000433176756, 0.0, 0.0, 0.0, 0.0, 0.0, 1.740160996313205E9, 0.0, 2025-02-21 12:03:16.313
40.0, -523.4233081485145, -599.5620613964275, -380.59278894076124, -387.16940301284194, -0.4480000212788582, 0.0, 0.9120000433176756, 0.0, 0.0, 0.0, 0.0, 0.0, 1.740160996344111E9, 0.0, 2025-02-21 12:03:16.344
40.0, -494.56997999036685, -584.4416458755732, -374.57902981201187, -379.2632545065135, -0.4480000212788582, 0.0, 0.9120000433176756, 0.0, 0.0, 0.0, 0.0, 0.0, 1.740160996344144E9, 0.0, 2025-02-21 12:03:16.344
41.0, -498.90826393896714, -580.9971980163828, -369.7844780688174, -369.37495902366936, -0.4480000212788582, 0.0, 0.9120000433176756, 0.0, 0.0, 0.0, 0.0, 0.0, 1.74016099634417E9, 0.0, 2025-02-21 12:03:16.344
41.0, -496.46236936794594, -574.4261937942356, -373.29250422725454, -383.52674045599997, -0.4480000212788582, 0.0, 0.9120000433176756, 0.0, 0.0, 0.0, 0.0, 0.0, 1.740160996344181E9, 0.0, 2025-02-21 12:03:16.344
42.0, -495.2543816822581, -576.1876866733655, -367.7125734933652, -364.92821797635406, -0.4480000212788582, 0.0, 0.9120000433176756, 0.0, 0.0, 0.0, 0.0, 0.0, 1.7401609963442E9, 0.0, 2025-02-21 12:03:16.344
42.0, -496.4324501683004, -579.3516420358792, -364.77301212819293, -364.7636623783037, -0.4480000212788582, 0.0, 0.9120000433176756, 0.0, 0.0, 0.0, 0.0, 0.0, 1.740160996344211E9, 0.0, 2025-02-21 12:03:16.344
43.0, -505.1912958645262, -586.6855858489871, -379.70643265126273, -378.53397401515394, -0.4480000212788582, 0.0, 0.9120000433176756, 0.0, 0.0, 0.0, 0.0, 0.0, 1.740160996372121E9, 0.0, 2025-02-21 12:03:16.372
43.0, -507.5249934368767, -588.2264246307313, -373.4981987248175, -376.71264273673296, -0.4480000212788582, 0.0, 0.9120000433176756, 0.0, 0.0, 0.0, 0.0, 0.0, 1.740160996372149E9, 0.0, 2025-02-21 12:03:16.372
44.0, -501.0774059132673, -583.0055242925882, -384.1943125980906, -399.36147686839104, -0.4480000212788582, 0.0, 0.9120000433176756, 0.0, 0.0, 0.0, 0.0, 0.0, 1.740160996372964E9, 0.0, 2025-02-21 12:03:16.372
44.0, -508.50484722526744, -588.9744046218693, -384.1943125980906, -380.5535199912265, -0.4480000212788582, 0.0, 0.9120000433176756, 0.0, 0.0, 0.0, 0.0, 0.0, 1.740160996372978E9, 0.0, 2025-02-21 12:03:16.372
45.0, -505.57276566000655, -582.2164054019377, -368.69990708166733, -374.6519578611478, -0.4480000212788582, 0.0, 0.9120000433176756, 0.0, 0.0, 0.0, 0.0, 0.0, 1.740160996372998E9, 0.0, 2025-02-21 12:03:16.372
45.0, -509.31266561569646, -582.7736504953355, -386.614027869422, -380.31790629401803, -0.4480000212788582, 0.0, 0.9120000433176756, 0.0, 0.0, 0.0, 0.0, 0.0, 1.740160996373009E9, 0.0, 2025-02-21 12:03:16.373
46.0, -503.34378528641537, -581.247771313414, -367.1179294004105, -376.1740971431136, -0.4480000212788582, 0.0, 0.9120000433176756, 0.0, 0.0, 0.0, 0.0, 0.0, 1.740160996401961E9, 0.0, 2025-02-21 12:03:16.401
46.0, -497.35246555740014, -576.8085100660101, -368.4942125841044, -371.45060349907726, -0.4480000212788582, 0.0, 0.9120000433176756, 0.0, 0.0, 0.0, 0.0, 0.0, 1.74016099640199E9, 0.0, 2025-02-21 12:03:16.401
47.0, -500.7744740168564, -586.5995681500062, -386.0455630761571, -379.16601710766554, -0.4480000212788582, 0.0, 0.9120000433176756, 0.0, 0.0, 0.0, 0.0, 0.0, 1.740160996403356E9, 0.0, 2025-02-21 12:03:16.403
47.0, -504.3049395750277, -582.1827463023365, -373.045670830179, -378.15624411962926, -0.4480000212788582, 0.0, 0.9120000433176756, 0.0, 0.0, 0.0, 0.0, 0.0, 1.740160996403373E9, 0.0, 2025-02-21 12:03:16.403
48.0, -507.38661713851616, -594.1242468608543, -387.8594145546667, -391.72834105882794, -0.4480000212788582, 0.0, 0.9120000433176756, 0.0, 0.0, 0.0, 0.0, 0.0, 1.740160996403396E9, 0.0, 2025-02-21 12:03:16.403
48.0, -506.91164984414354, -586.0872018560767, -377.02492438303307, -375.7440086482093, -0.4480000212788582, 0.0, 0.9120000433176756, 0.0, 0.0, 0.0, 0.0, 0.0, 1.740160996403407E9, 0.0, 2025-02-21 12:03:16.403
49.0, -503.7776136812754, -586.5846085501835, -373.91332761989906, -377.45688282791525, -0.4480000212788582, 0.0, 0.9120000433176756, 0.0, 0.0, 0.0, 0.0, 0.0, 1.740160996431918E9, 0.0, 2025-02-21 12:03:16.431
49.0, -501.623431306798, -582.6427539968863, -376.99126528343186, -383.5603995556012, -0.4480000212788582, 0.0, 0.9120000433176756, 0.0, 0.0, 0.0, 0.0, 0.0, 1.74016099643195E9, 0.0, 2025-02-21 12:03:16.431
50.0, -497.6329580540769, -582.0256705041975, -378.6106419642456, -375.30270045343786, -0.4480000212788582, 0.0, 0.9120000433176756, 0.0, 0.0, 0.0, 0.0, 0.0, 1.740160996433376E9, 0.0, 2025-02-21 12:03:16.433
50.0, -500.86423161579296, -582.8447085944936, -377.9748589717783, -373.0363210802898, -0.4480000212788582, 0.0, 0.9120000433176756, 0.0, 0.0, 0.0, 0.0, 0.0, 1.740160996433396E9, 0.0, 2025-02-21 12:03:16.433
51.0, -499.46550903236493, -579.7779906308278, -374.2985373153351, -375.6692106490955, -0.4480000212788582, 0.0, 0.9120000433176756, 0.0, 0.0, 0.0, 0.0, 0.0, 1.740160996433423E9, 0.0, 2025-02-21 12:03:16.433
51.0, -506.7844932456501, -586.0946816559881, -372.83997633261606, -385.91279662773013, -0.4480000212788582, 0.0, 0.9120000433176756, 0.0, 0.0, 0.0, 0.0, 0.0, 1.740160996433436E9, 0.0, 2025-02-21 12:03:16.433
52.0, -503.91225007968023, -581.1841930141672, -386.7898031673394, -390.80458576977253, -0.43200002051889896, 0.0, 0.9120000433176756, 0.0, 0.0, 0.0, 0.0, 0.0, 1.740160996462723E9, 0.0, 2025-02-21 12:03:16.462
52.0, -500.79691341659054, -575.9707724759355, -368.42689438490197, -362.56086130440235, -0.43200002051889896, 0.0, 0.9120000433176756, 0.0, 0.0, 0.0, 0.0, 0.0, 1.740160996462756E9, 0.0, 2025-02-21 12:03:16.462
53.0, -504.1852627764456, -588.4096797285601, -375.73465889832005, -370.8335200063884, -0.43200002051889896, 0.0, 0.9120000433176756, 0.0, 0.0, 0.0, 0.0, 0.0, 1.740160996465751E9, 0.0, 2025-02-21 12:03:16.465
53.0, -503.53452018415555, -582.8297489946708, -380.1552206459455, -380.523600791581, -0.43200002051889896, 0.0, 0.9120000433176756, 0.0, 0.0, 0.0, 0.0, 0.0, 1.740160996465781E9, 0.0, 2025-02-21 12:03:16.465
54.0, -502.3377521983348, -581.0832157153636, -371.65068814670667, -373.2195761781186, -0.43200002051889896, 0.0, 0.9120000433176756, 0.0, 0.0, 0.0, 0.0, 0.0, 1.740160996465888E9, 0.0, 2025-02-21 12:03:16.465
54.0, -507.3379984390922, -584.9353126697242, -374.47431261325255, -388.50454729702324, -0.43200002051889896, 0.0, 0.9120000433176756, 0.0, 0.0, 0.0, 0.0, 0.0, 1.740160996465915E9, 0.0, 2025-02-21 12:03:16.465
55.0, -505.0716190659441, -582.3435620004311, -376.7219924866222, -389.50310058519244, -0.43200002051889896, 0.0, 0.9120000433176756, 0.0, 0.0, 0.0, 0.0, 0.0, 1.740160996492156E9, 0.0, 2025-02-21 12:03:16.492
55.0, -501.72440860560164, -583.2186985900626, -366.448487308342, -374.7604149598628, -0.43200002051889896, 0.0, 0.9120000433176756, 0.0, 0.0, 0.0, 0.0, 0.0, 1.740160996492186E9, 0.0, 2025-02-21 12:03:16.492
56.0, -506.01407385477796, -586.8127424474806, -379.11178855830804, -383.5828389553353, -0.43200002051889896, 0.0, 0.9120000433176756, 0.0, 0.0, 0.0, 0.0, 0.0, 1.740160996493625E9, 0.0, 2025-02-21 12:03:16.493
56.0, -499.6712035299279, -577.5340506574139, -371.1308420528658, -380.3328658938408, -0.43200002051889896, 0.0, 0.9120000433176756, 0.0, 0.0, 0.0, 0.0, 0.0, 1.740160996493649E9, 0.0, 2025-02-21 12:03:16.493
57.0, -501.9675021027215, -585.0886485679075, -371.9311806433834, -368.8513730298728, -0.43200002051889896, 0.0, 0.9120000433176756, 0.0, 0.0, 0.0, 0.0, 0.0, 1.740160996493678E9, 0.0, 2025-02-21 12:03:16.493
57.0, -502.45368909696117, -580.8476020181552, -372.9671329311095, -370.71758310776204, -0.43200002051889896, 0.0, 0.9120000433176756, 0.0, 0.0, 0.0, 0.0, 0.0, 1.740160996493689E9, 0.0, 2025-02-21 12:03:16.493
58.0, -508.31785222748294, -588.2713034301996, -375.73465889832005, -372.93534378148615, -0.43200002051889896, 0.0, 0.9120000433176756, 0.0, 0.0, 0.0, 0.0, 0.0, 1.74016099652189E9, 0.0, 2025-02-21 12:03:16.521
58.0, -503.61305808322504, -583.3608147883788, -373.81235032109544, -370.81856040656567, -0.43200002051889896, 0.0, 0.9120000433176756, 0.0, 0.0, 0.0, 0.0, 0.0, 1.740160996521933E9, 0.0, 2025-02-21 12:03:16.521
59.0, -502.5546663957648, -578.8243161421269, -369.65358157036826, -367.437690846622, -0.43200002051889896, 0.0, 0.9120000433176756, 0.0, 0.0, 0.0, 0.0, 0.0, 1.740160996523227E9, 0.0, 2025-02-21 12:03:16.523
59.0, -502.6556436945684, -580.1108417268842, -373.62161542335525, -372.4828158868477, -0.43200002051889896, 0.0, 0.9120000433176756, 0.0, 0.0, 0.0, 0.0, 0.0, 1.740160996523241E9, 0.0, 2025-02-21 12:03:16.523
60.0, -505.64382375916466, -583.5478097861633, -377.339075979311, -388.97951459139585, -0.43200002051889896, 0.0, 0.9120000433176756, 0.0, 0.0, 0.0, 0.0, 0.0, 1.740160996523261E9, 0.0, 2025-02-21 12:03:16.523
60.0, -494.2221692944877, -571.7409456260502, -370.7157131577842, -367.6471252441406, -0.43200002051889896, 0.0, 0.9120000433176756, 0.0, 0.0, 0.0, 0.0, 0.0, 1.740160996523272E9, 0.0, 2025-02-21 12:03:16.523
61.0, -498.3024001461454, -570.4693796411157, -360.12805638322607, -356.3937662774697, -0.43200002051889896, 0.0, 0.9120000433176756, 0.0, 0.0, 0.0, 0.0, 0.0, 1.740160996551897E9, 0.0, 2025-02-21 12:03:16.551
61.0, -492.96930280933157, -571.3669556304812, -366.9010152029805, -363.78380858991295, -0.43200002051889896, 0.0, 0.9120000433176756, 0.0, 0.0, 0.0, 0.0, 0.0, 1.740160996551929E9, 0.0, 2025-02-21 12:03:16.551
62.0, -487.15375837823376, -572.9788525113836, -361.0443318723701, -359.59886053949594, -0.43200002051889896, 0.0, 0.9120000433176756, 0.0, 0.0, 0.0, 0.0, 0.0, 1.740160996552868E9, 0.0, 2025-02-21 12:03:16.552
62.0, -484.7602224065922, -560.8802761547267, -356.87434342177585, -354.6135738985613, -0.43200002051889896, 0.0, 0.9120000433176756, 0.0, 0.0, 0.0, 0.0, 0.0, 1.740160996552886E9, 0.0, 2025-02-21 12:03:16.552
63.0, -491.2975675291382, -570.6077559394762, -363.39672894449905, -352.8333815196529, -0.43200002051889896, 0.0, 0.9120000433176756, 0.0, 0.0, 0.0, 0.0, 0.0, 1.740160996552909E9, 0.0, 2025-02-21 12:03:16.552
63.0, -485.9233312928118, -566.2769517907873, -356.23856042930856, -354.2732430025935, -0.43200002051889896, 0.0, 0.9120000433176756, 0.0, 0.0, 0.0, 0.0, 0.0, 1.74016099655292E9, 0.0, 2025-02-21 12:03:16.552
64.0, -496.0023616733961, -572.0737967221066, -371.83768314449117, -376.5817462382838, -0.43200002051889896, 0.0, 0.9120000433176756, 0.0, 0.0, 0.0, 0.0, 0.0, 1.740160996582037E9, 0.0, 2025-02-21 12:03:16.582
64.0, -489.8352666464634, -571.8344431249425, -361.28742536948994, -371.07661350350827, -0.43200002051889896, 0.0, 0.9120000433176756, 0.0, 0.0, 0.0, 0.0, 0.0, 1.740160996582065E9, 0.0, 2025-02-21 12:03:16.582
65.0, -493.33955290494487, -576.2587447725236, -369.87423566775396, -363.5070559931919, -0.43200002051889896, 0.0, 0.9120000433176756, 0.0, 0.0, 0.0, 0.0, 0.0, 1.74016099658383E9, 0.0, 2025-02-21 12:03:16.583
65.0, -499.75348132895306, -578.7644777428359, -380.8022233382799, -380.78913368843496, -0.43200002051889896, 0.0, 0.9120000433176756, 0.0, 0.0, 0.0, 0.0, 0.0, 1.740160996583843E9, 0.0, 2025-02-21 12:03:16.583
66.0, -497.763854552526, -573.8053704015911, -363.0002995491959, -370.6166058089584, -0.43200002051889896, 0.0, 0.9120000433176756, 0.0, 0.0, 0.0, 0.0, 0.0, 1.740160996585015E9, 0.0, 2025-02-21 12:03:16.585
66.0, -489.3229003525339, -570.0168517464772, -373.0830698297359, -375.059606956318, -0.43200002051889896, 0.0, 0.9120000433176756, 0.0, 0.0, 0.0, 0.0, 0.0, 1.740160996585028E9, 0.0, 2025-02-21 12:03:16.585
67.0, -490.01852174429223, -569.2015535561368, -366.7588990046643, -354.99878359399736, -0.43200002051889896, 0.0, 0.9120000433176756, 0.0, 0.0, 0.0, 0.0, 0.0, 1.74016099661313E9, 0.0, 2025-02-21 12:03:16.613
67.0, -492.1128657194786, -569.8822153480724, -355.54667893750593, -354.3817001013085, -0.43200002051889896, 0.0, 0.9120000433176756, 0.0, 0.0, 0.0, 0.0, 0.0, 1.740160996613155E9, 0.0, 2025-02-21 12:03:16.613
68.0, -494.2109495946206, -572.3655089186504, -372.7950975331478, -373.30559387709945, -0.43200002051889896, 0.0, 0.9120000433176756, 0.0, 0.0, 0.0, 0.0, 0.0, 1.740160996613178E9, 0.0, 2025-02-21 12:03:16.613
68.0, -488.2869480648078, -562.79510493204, -357.24833341734484, -343.13956083450466, -0.43200002051889896, 0.0, 0.9120000433176756, 0.0, 0.0, 0.0, 0.0, 0.0, 1.740160996613189E9, 0.0, 2025-02-21 12:03:16.613
69.0, -494.89535128651187, -572.3617690186948, -362.32711755717173, -356.8388143721968, -0.43200002051889896, 0.0, 0.9120000433176756, 0.0, 0.0, 0.0, 0.0, 0.0, 1.740160996613261E9, 0.0, 2025-02-21 12:03:16.613
69.0, -500.1349511244334, -574.8488024892285, -372.14435494085774, -358.0692414576188, -0.43200002051889896, 0.0, 0.9120000433176756, 0.0, 0.0, 0.0, 0.0, 0.0, 1.740160996613271E9, 0.0, 2025-02-21 12:03:16.613
70.0, -490.0671404437162, -567.2306262794882, -360.0382987842895, -359.7708959374577, -0.43200002051889896, 0.0, 0.9120000433176756, 0.0, 0.0, 0.0, 0.0, 0.0, 1.740160996642053E9, 0.0, 2025-02-21 12:03:16.642
70.0, -498.6913497415371, -575.0918959863484, -375.2634315039031, -381.1369443843141, -0.43200002051889896, 0.0, 0.9120000433176756, 0.0, 0.0, 0.0, 0.0, 0.0, 1.740160996642084E9, 0.0, 2025-02-21 12:03:16.642
71.0, -495.98366217361763, -574.4374134941027, -365.84262351552024, -376.64158463757485, -0.43200002051889896, 0.0, 0.9120000433176756, 0.0, 0.0, 0.0, 0.0, 0.0, 1.740160996643184E9, 0.0, 2025-02-21 12:03:16.643
71.0, -493.5452474025078, -580.0248240279034, -370.24448576336727, -384.6561902426183, -0.43200002051889896, 0.0, 0.9120000433176756, 0.0, 0.0, 0.0, 0.0, 0.0, 1.740160996643202E9, 0.0, 2025-02-21 12:03:16.643
72.0, -496.630664865952, -578.6821999438107, -378.5769828646444, -380.8377523878589, -0.4480000212788582, 0.0, 0.9120000433176756, 0.0, 0.0, 0.0, 0.0, 0.0, 1.740160996644503E9, 0.0, 2025-02-21 12:03:16.644
72.0, -491.4396837274544, -569.7587986495346, -360.58058427786455, -371.3234469005838, -0.4480000212788582, 0.0, 0.9120000433176756, 0.0, 0.0, 0.0, 0.0, 0.0, 1.740160996644517E9, 0.0, 2025-02-21 12:03:16.644
73.0, -496.6157052661292, -579.6583138322458, -365.8538432153873, -382.4085103692487, -0.4480000212788582, 0.0, 0.9120000433176756, 0.0, 0.0, 0.0, 0.0, 0.0, 1.740160996671967E9, 0.0, 2025-02-21 12:03:16.671
73.0, -486.7311496832408, -569.452126853168, -368.65876818215474, -359.3258478427306, -0.4480000212788582, 0.0, 0.9120000433176756, 0.0, 0.0, 0.0, 0.0, 0.0, 1.740160996671992E9, 0.0, 2025-02-21 12:03:16.671
74.0, -493.82573989918455, -579.1085485387594, -370.61473585898057, -367.31053424812853, -0.4480000212788582, 0.0, 0.9120000433176756, 0.0, 0.0, 0.0, 0.0, 0.0, 1.740160996672873E9, 0.0, 2025-02-21 12:03:16.672
74.0, -490.6954436362721, -567.6382753746584, -362.39443575637415, -369.9957824163139, -0.4480000212788582, 0.0, 0.9120000433176756, 0.0, 0.0, 0.0, 0.0, 0.0, 1.740160996672887E9, 0.0, 2025-02-21 12:03:16.672
75.0, -490.75154213560745, -569.8448163485155, -358.826571198646, -361.86523991264403, -0.4480000212788582, 0.0, 0.9120000433176756, 0.0, 0.0, 0.0, 0.0, 0.0, 1.740160996672907E9, 0.0, 2025-02-21 12:03:16.672
75.0, -493.7397222002037, -575.4771056817845, -361.3659632685594, -371.22994940169156, -0.4480000212788582, 0.0, 0.9120000433176756, 0.0, 0.0, 0.0, 0.0, 0.0, 1.740160996672918E9, 0.0, 2025-02-21 12:03:16.672
76.0, -500.16487032407895, -583.8657012823969, -370.73067275760695, -377.1876100311056, -0.4480000212788582, 0.0, 0.9120000433176756, 0.0, 0.0, 0.0, 0.0, 0.0, 1.740160996701941E9, 0.0, 2025-02-21 12:03:16.701
76.0, -499.7460015290417, -578.1436543501914, -366.9645935022272, -373.75064197182655, -0.4480000212788582, 0.0, 0.9120000433176756, 0.0, 0.0, 0.0, 0.0, 0.0, 1.740160996701972E9, 0.0, 2025-02-21 12:03:16.701
77.0, -491.0395144321956, -566.3480098899454, -366.0520579130389, -375.8487258469686, -0.4480000212788582, 0.0, 0.9120000433176756, 0.0, 0.0, 0.0, 0.0, 0.0, 1.740160996703277E9, 0.0, 2025-02-21 12:03:16.703
77.0, -495.7330888765864, -581.7489179074764, -368.7934045805596, -377.0006150333211, -0.4480000212788582, 0.0, 0.9120000433176756, 0.0, 0.0, 0.0, 0.0, 0.0, 1.740160996703293E9, 0.0, 2025-02-21 12:03:16.703
78.0, -491.1367518310435, -575.1592141855508, -357.8654169100337, -376.2601148420945, -0.4480000212788582, 0.0, 0.9120000433176756, 0.0, 0.0, 0.0, 0.0, 0.0, 1.740160996703376E9, 0.0, 2025-02-21 12:03:16.703
78.0, -492.2587218177505, -575.5332041811198, -378.3488489673473, -380.3216461939737, -0.4480000212788582, 0.0, 0.9120000433176756, 0.0, 0.0, 0.0, 0.0, 0.0, 1.740160996703399E9, 0.0, 2025-02-21 12:03:16.703
79.0, -492.68507041269913, -577.0590833630413, -368.10526298871264, -367.280615048483, -0.4480000212788582, 0.0, 0.9120000433176756, 0.0, 0.0, 0.0, 0.0, 0.0, 1.740160996732067E9, 0.0, 2025-02-21 12:03:16.732
79.0, -499.42811003280804, -587.8486947352067, -373.31868352694437, -373.26819487754256, -0.4480000212788582, 0.0, 0.9120000433176756, 0.0, 0.0, 0.0, 0.0, 0.0, 1.740160996732093E9, 0.0, 2025-02-21 12:03:16.732
80.0, -491.8735121223144, -584.3331887768582, -374.5004919129424, -382.0420001735911, -0.4480000212788582, 0.0, 0.9120000433176756, 0.0, 0.0, 0.0, 0.0, 0.0, 1.74016099673304E9, 0.0, 2025-02-21 12:03:16.733
80.0, -497.81247325195, -589.0791218206286, -380.85084203770384, -380.26928759459406, -0.4480000212788582, 0.0, 0.9120000433176756, 0.0, 0.0, 0.0, 0.0, 0.0, 1.740160996733059E9, 0.0, 2025-02-21 12:03:16.733
81.0, -497.5880792546086, -588.5368363270536, -379.5717962528579, -371.5029620984569, -0.4480000212788582, 0.01600000075995922, 0.9120000433176756, 0.0, 0.0, 0.0, 0.0, 0.0, 1.740160996733081E9, 0.0, 2025-02-21 12:03:16.733
81.0, -491.34618622856215, -576.0343507751822, -375.3718886026181, -367.93135764077306, -0.4480000212788582, 0.01600000075995922, 0.9120000433176756, 0.0, 0.0, 0.0, 0.0, 0.0, 1.740160996733094E9, 0.0, 2025-02-21 12:03:16.733
82.0, -492.9842624091543, -577.6948663555086, -378.06835647067055, -371.41320449952036, -0.4480000212788582, 0.01600000075995922, 0.9120000433176756, 0.0, 0.0, 0.0, 0.0, 0.0, 1.740160996762112E9, 0.0, 2025-02-21 12:03:16.762
82.0, -489.04614775581285, -580.3127963244915, -377.27923758002, -382.5468866676092, -0.4480000212788582, 0.01600000075995922, 0.9120000433176756, 0.0, 0.0, 0.0, 0.0, 0.0, 1.740160996762139E9, 0.0, 2025-02-21 12:03:16.762
83.0, -488.2532889652066, -573.4014612063766, -370.18090746412054, -372.60997248534113, -0.4480000212788582, 0.01600000075995922, 0.9120000433176756, 0.0, 0.0, 0.0, 0.0, 0.0, 1.740160996763633E9, 0.0, 2025-02-21 12:03:16.763
83.0, -492.6327118133195, -587.254050642252, -374.2985373153351, -375.7327889483422, -0.4480000212788582, 0.01600000075995922, 0.9120000433176756, 0.0, 0.0, 0.0, 0.0, 0.0, 1.740160996763648E9, 0.0, 2025-02-21 12:03:16.763
84.0, -490.3700723401271, -582.3173827007413, -367.787371492479, -364.22511678468436, -0.4480000212788582, 0.01600000075995922, 0.9120000433176756, 0.0, 0.0, 0.0, 0.0, 0.0, 1.740160996763669E9, 0.0, 2025-02-21 12:03:16.763
84.0, -486.1365055902861, -572.141114921309, -356.8145050224848, -354.243323802948, -0.4480000212788582, 0.01600000075995922, 0.9120000433176756, 0.0, 0.0, 0.0, 0.0, 0.0, 1.740160996763679E9, 0.0, 2025-02-21 12:03:16.763
85.0, -487.1462785783224, -576.1951664732769, -373.3448628266342, -361.3491337187588, -0.4480000212788582, 0.01600000075995922, 0.9120000433176756, 0.0, 0.0, 0.0, 0.0, 0.0, 1.740160996792155E9, 0.0, 2025-02-21 12:03:16.792
85.0, -488.33556676423177, -572.021438122727, -363.1611152472906, -360.59741382766515, -0.4480000212788582, 0.01600000075995922, 0.9120000433176756, 0.0, 0.0, 0.0, 0.0, 0.0, 1.740160996792185E9, 0.0, 2025-02-21 12:03:16.792
86.0, -490.97219623299316, -572.5562438163906, -354.8996762451716, -359.78959543723613, -0.4480000212788582, 0.01600000075995922, 0.9120000433176756, 0.0, 0.0, 0.0, 0.0, 0.0, 1.740160996794846E9, 0.0, 2025-02-21 12:03:16.794
86.0, -489.4799761506729, -575.0320575870574, -377.5298108770512, -382.187856271863, -0.4480000212788582, 0.01600000075995922, 0.9120000433176756, 0.0, 0.0, 0.0, 0.0, 0.0, 1.740160996794876E9, 0.0, 2025-02-21 12:03:16.794
87.0, -486.1327656903304, -574.1307416977361, -371.95735994307324, -371.4319039992988, -0.4480000212788582, 0.01600000075995922, 0.9120000433176756, 0.0, 0.0, 0.0, 0.0, 0.0, 1.740160996795888E9, 0.0, 2025-02-21 12:03:16.795
87.0, -492.04180762032047, -582.9045469937846, -369.8293568682857, -370.283754712902, -0.4480000212788582, 0.01600000075995922, 0.9120000433176756, 0.0, 0.0, 0.0, 0.0, 0.0, 1.740160996795904E9, 0.0, 2025-02-21 12:03:16.795
88.0, -490.89365833392367, -576.4270402705297, -369.2010536757298, -377.41948382835835, -0.4480000212788582, 0.01600000075995922, 0.9120000433176756, 0.0, 0.0, 0.0, 0.0, 0.0, 1.740160996829843E9, 0.0, 2025-02-21 12:03:16.829
88.0, -498.09296574862674, -584.5575827741995, -365.5658709187992, -369.3973984234035, -0.4480000212788582, 0.01600000075995922, 0.9120000433176756, 0.0, 0.0, 0.0, 0.0, 0.0, 1.740160996829876E9, 0.0, 2025-02-21 12:03:16.829
89.0, -491.8435929226689, -576.7150125671178, -377.80282357381657, -385.53880663216114, -0.4480000212788582, 0.01600000075995922, 0.9120000433176756, 0.0, 0.0, 0.0, 0.0, 0.0, 1.740160996829901E9, 0.0, 2025-02-21 12:03:16.829
89.0, -492.5018153148703, -582.7586908955127, -370.898968255613, -367.3180140480399, -0.4480000212788582, 0.01600000075995922, 0.9120000433176756, 0.0, 0.0, 0.0, 0.0, 0.0, 1.740160996829912E9, 0.0, 2025-02-21 12:03:16.829
90.0, -491.34244632860646, -577.3208763599396, -368.1239624884911, -373.72072277218103, -0.4480000212788582, 0.01600000075995922, 0.9120000433176756, 0.0, 0.0, 0.0, 0.0, 0.0, 1.74016099682993E9, 0.0, 2025-02-21 12:03:16.829
90.0, -485.74381609493867, -579.7293719314039, -375.87677509663627, -379.75318140070885, -0.4480000212788582, 0.01600000075995922, 0.9120000433176756, 0.0, 0.0, 0.0, 0.0, 0.0, 1.74016099682994E9, 0.0, 2025-02-21 12:03:16.829
91.0, -486.9256244809367, -580.5970287211239, -367.3311036978848, -376.98191553354263, -0.4480000212788582, 0.0, 0.9120000433176756, 0.0, 0.0, 0.0, 0.0, 0.0, 1.740160996853082E9, 0.0, 2025-02-21 12:03:16.853
91.0, -493.15255790716037, -579.0412303395569, -364.58601713040844, -372.45663658715785, -0.4480000212788582, 0.0, 0.9120000433176756, 0.0, 0.0, 0.0, 0.0, 0.0, 1.740160996853114E9, 0.0, 2025-02-21 12:03:16.853
92.0, -492.38587841624394, -587.1007147440687, -376.88654808467254, -379.52878740336746, -0.4480000212788582, 0.0, 0.9120000433176756, 0.0, 0.0, 0.0, 0.0, 0.0, 1.740160996853139E9, 0.0, 2025-02-21 12:03:16.853
92.0, -494.0351742967032, -578.8991141412407, -356.3320579282008, -365.92677126452327, -0.4480000212788582, 0.0, 0.9120000433176756, 0.0, 0.0, 0.0, 0.0, 0.0, 1.74016099685315E9, 0.0, 2025-02-21 12:03:16.853
93.0, -486.5104955858551, -576.6626539677382, -362.87688285065815, -367.64338534418494, -0.4480000212788582, 0.0, 0.9120000433176756, 0.0, 0.0, 0.0, 0.0, 0.0, 1.740160996853168E9, 0.0, 2025-02-21 12:03:16.853
93.0, -485.5530811971985, -571.6773673268035, -357.57370471348986, -359.33332764264196, -0.4480000212788582, 0.0, 0.9120000433176756, 0.0, 0.0, 0.0, 0.0, 0.0, 1.740160996853178E9, 0.0, 2025-02-21 12:03:16.853
94.0, -482.53124203300104, -571.5352511284873, -355.0305727436207, -360.5450552282855, -0.4480000212788582, 0.0, 0.9120000433176756, 0.0, 0.0, 0.0, 0.0, 0.0, 1.740160996881926E9, 0.0, 2025-02-21 12:03:16.881
94.0, -477.71051099011675, -569.1080560572445, -368.29225798649713, -366.1062864623964, -0.4480000212788582, 0.0, 0.9120000433176756, 0.0, 0.0, 0.0, 0.0, 0.0, 1.740160996881955E9, 0.0, 2025-02-21 12:03:16.881
95.0, -479.8385140649043, -571.1276020333171, -368.5989297828637, -365.45928377006203, -0.4480000212788582, 0.0, 0.9120000433176756, 0.0, 0.0, 0.0, 0.0, 0.0, 1.740160996883244E9, 0.0, 2025-02-21 12:03:16.883
95.0, -487.6474251723848, -573.4351203059778, -363.75949924020097, -368.9149513291195, -0.4480000212788582, 0.0, 0.9120000433176756, 0.0, 0.0, 0.0, 0.0, 0.0, 1.74016099688326E9, 0.0, 2025-02-21 12:03:16.883
96.0, -483.0323886270635, -576.6551741678268, -373.39348152605817, -368.48860273417085, -0.4480000212788582, 0.0, 0.9120000433176756, 0.0, 0.0, 0.0, 0.0, 0.0, 1.740160996884604E9, 0.0, 2025-02-21 12:03:16.884
96.0, -488.52256176201627, -578.5625231452286, -368.6662479820661, -371.6974368961528, -0.4480000212788582, 0.0, 0.9120000433176756, 0.0, 0.0, 0.0, 0.0, 0.0, 1.740160996884622E9, 0.0, 2025-02-21 12:03:16.884
97.0, -480.9455244517885, -576.9581060642377, -374.92684050789103, -373.41779087577015, -0.4480000212788582, 0.0, 0.9120000433176756, 0.0, 0.0, 0.0, 0.0, 0.0, 1.740160996913452E9, 0.0, 2025-02-21 12:03:16.913
97.0, -477.5833543916233, -567.0810302812606, -358.4825004027225, -358.89949924778193, -0.4480000212788582, 0.0, 0.9120000433176756, 0.0, 0.0, 0.0, 0.0, 0.0, 1.740160996913477E9, 0.0, 2025-02-21 12:03:16.913
98.0, -484.3226541117765, -571.9690795233473, -359.4025157918222, -362.4711037054658, -0.4480000212788582, 0.0, 0.9120000433176756, 0.0, 0.0, 0.0, 0.0, 0.0, 1.740160996913503E9, 0.0, 2025-02-21 12:03:16.913
98.0, -485.15665180189535, -576.0717497747391, -373.77121142158285, -366.3867789590731, -0.4480000212788582, 0.0, 0.9120000433176756, 0.0, 0.0, 0.0, 0.0, 0.0, 1.740160996913514E9, 0.0, 2025-02-21 12:03:16.913
99.0, -485.74755599489436, -575.6005223803222, -360.3300109808333, -359.86065353639424, -0.4480000212788582, 0.0, 0.9120000433176756, 0.0, 0.0, 0.0, 0.0, 0.0, 1.740160996913532E9, 0.0, 2025-02-21 12:03:16.913
99.0, -483.3166210236959, -576.8833080651239, -366.94963390240446, -367.03752155136317, -0.4480000212788582, 0.0, 0.9120000433176756, 0.0, 0.0, 0.0, 0.0, 0.0, 1.740160996913542E9, 0.0, 2025-02-21 12:03:16.913
100.0, -486.8695259816013, -571.5838698279113, -363.8978755385615, -355.5747281871736, -0.4480000212788582, 0.0, 0.9120000433176756, 0.0, 0.0, 0.0, 0.0, 0.0, 1.740160996942347E9, 0.0, 2025-02-21 12:03:16.942
100.0, -479.5468018683605, -570.5179983405396, -350.90172319253907, -350.0920348521322, -0.4480000212788582, 0.0, 0.9120000433176756, 0.0, 0.0, 0.0, 0.0, 0.0, 1.740160996942371E9, 0.0, 2025-02-21 12:03:16.942
0.0, -491.21715968009084, -579.77612068085, -373.8273099209182, -361.5772676160559, -0.4480000212788582, 0.0, 0.9120000433176756, 0.0, 0.0, 0.0, 0.0, 0.0, 1.740160996943484E9, 0.0, 2025-02-21 12:03:16.943
1.0, -483.10531667619944, -570.9200375857763, -368.7186065814458, -360.93774472363293, -0.4480000212788582, 0.0, 0.9120000433176756, 0.0, 0.0, 0.0, 0.0, 0.0, 1.740160996944093E9, 0.0, 2025-02-21 12:03:16.944
1.0, -483.99541286565363, -574.469202643726, -369.8704957677983, -366.7944280542433, -0.4480000212788582, 0.0, 0.9120000433176756, 0.0, 0.0, 0.0, 0.0, 0.0, 1.740160996944106E9, 0.0, 2025-02-21 12:03:16.944
2.0, -481.02967220079154, -578.9346431908198, -365.92116141458973, -378.0964057203382, -0.4480000212788582, 0.0, 0.9120000433176756, 0.0, 0.0, 0.0, 0.0, 0.0, 1.740160996944125E9, 0.0, 2025-02-21 12:03:16.944
2.0, -488.13174221664667, -578.0071480018087, -360.273912481498, -366.08010716270655, -0.4480000212788582, 0.0, 0.9120000433176756, 0.0, 0.0, 0.0, 0.0, 0.0, 1.740160996944136E9, 0.0, 2025-02-21 12:03:16.944
3.0, -486.5310650356114, -581.2085023638792, -376.4639393896796, -376.8846781346947, -0.4480000212788582, 0.0, 0.9120000433176756, 0.0, 0.0, 0.0, 0.0, 0.0, 1.74016099697181E9, 0.0, 2025-02-21 12:03:16.971
3.0, -490.383161989972, -581.6124115590937, -365.7753053163178, -365.30220797192305, -0.4480000212788582, 0.0, 0.9120000433176756, 0.0, 0.0, 0.0, 0.0, 0.0, 1.740160996971835E9, 0.0, 2025-02-21 12:03:16.971
4.0, -494.0445240465924, -580.198729375843, -360.73392017604783, -371.83207329455763, -0.4480000212788582, 0.0, 0.9120000433176756, 0.0, 0.0, 0.0, 0.0, 0.0, 1.740160996972813E9, 0.0, 2025-02-21 12:03:16.972
4.0, -521.0428618267179, -596.8674634783529, -382.96014561271295, -391.08881816640496, -0.4480000212788582, 0.0, 0.9120000433176756, 0.0, 0.0, 0.0, 0.0, 0.0, 1.740160996972829E9, 0.0, 2025-02-21 12:03:16.972
5.0, -469.8137122336775, -568.571380413603, -375.18489360483363, -372.5950128855184, -0.4480000212788582, 0.0, 0.9120000433176756, 0.0, 0.0, 0.0, 0.0, 0.0, 1.74016099700205E9, 0.0, 2025-02-21 12:03:17.002
5.0, -473.1235236944631, -575.2583215343766, -362.3009382574819, -357.56061506364495, -0.4480000212788582, 0.0, 0.9120000433176756, 0.0, 0.0, 0.0, 0.0, 0.0, 1.740160997002079E9, 0.0, 2025-02-21 12:03:17.002
6.0, -472.05765220709145, -572.0120883728378, -374.14894131710753, -372.5576138859615, -0.4480000212788582, 0.0, 0.9120000433176756, 0.0, 0.0, 0.0, 0.0, 0.0, 1.740160997003016E9, 0.0, 2025-02-21 12:03:17.003
6.0, -487.10700962878764, -575.9801222258247, -363.7894184398465, -360.3879794301465, -0.4480000212788582, 0.0, 0.9120000433176756, 0.0, 0.0, 0.0, 0.0, 0.0, 1.74016099700303E9, 0.0, 2025-02-21 12:03:17.003
7.0, -462.6293644187972, -568.8705724100582, -366.03335841326043, -371.0728736035526, -0.4480000212788582, 0.0, 0.9120000433176756, 0.0, 0.0, 0.0, 0.0, 0.0, 1.740160997004175E9, 0.0, 2025-02-21 12:03:17.004
7.0, -475.72275416366756, -569.3604993042536, -358.46380090294406, -358.25623645540327, -0.4480000212788582, 0.0, 0.9120000433176756, 0.0, 0.0, 0.0, 0.0, 0.0, 1.74016099700423E9, 0.0, 2025-02-21 12:03:17.004
8.0, -468.12327745370567, -565.6692180479877, -360.1916346824728, -362.9198917001486, -0.4480000212788582, 0.0, 0.9120000433176756, 0.0, 0.0, 0.0, 0.0, 0.0, 1.740160997004251E9, 0.0, 2025-02-21 12:03:17.004
8.0, -478.21352753415704, -575.2321422346868, -370.7605919572525, -384.64123064279556, -0.4480000212788582, 0.0, 0.9120000433176756, 0.0, 0.0, 0.0, 0.0, 0.0, 1.740160997004261E9, 0.0, 2025-02-21 12:03:17.004
9.0, -481.10073029994965, -577.9772288021632, -365.3414769214578, -364.89829877670854, -0.4480000212788582, 0.0, 0.9120000433176756, 0.0, 0.0, 0.0, 0.0, 0.0, 1.740160997031822E9, 0.0, 2025-02-21 12:03:17.031
9.0, -482.12920278776437, -572.9844623613171, -361.68759466474876, -363.204124096781, -0.4480000212788582, 0.0, 0.9120000433176756, 0.0, 0.0, 0.0, 0.0, 0.0, 1.740160997031851E9, 0.0, 2025-02-21 12:03:17.031
10.0, -489.55290419980884, -585.2438544160686, -380.06546304700896, -387.4087566100061, -0.4480000212788582, 0.0, 0.9120000433176756, 0.0, 0.0, 0.0, 0.0, 0.0, 1.740160997032838E9, 0.0, 2025-02-21 12:03:17.032
10.0, -490.1251088930294, -581.9415227551945, -367.4881794960238, -374.7043164605275, -0.4480000212788582, 0.0, 0.9120000433176756, 0.0, 0.0, 0.0, 0.0, 0.0, 1.740160997032853E9, 0.0, 2025-02-21 12:03:17.032
11.0, -487.0135121298954, -586.5378598007374, -376.7257323865779, -378.0964057203382, -0.4480000212788582, 0.0, 0.9120000433176756, 0.0, 0.0, 0.0, 0.0, 0.0, 1.740160997062045E9, 0.0, 2025-02-21 12:03:17.062
11.0, -482.8547433791682, -579.2076558875851, -367.8172906921245, -368.67933763191104, -0.4480000212788582, 0.0, 0.9120000433176756, 0.0, 0.0, 0.0, 0.0, 0.0, 1.740160997062078E9, 0.0, 2025-02-21 12:03:17.062
12.0, -486.65822163410485, -587.495274189394, -367.65273509407416, -364.64024567976594, -0.43200002051889896, 0.0, 0.9120000433176756, 0.0, 0.0, 0.0, 0.0, 0.0, 1.740160997063154E9, 0.0, 2025-02-21 12:03:17.063
12.0, -483.47182687185705, -589.1183907701634, -370.4127812613733, -383.8408920522779, -0.43200002051889896, 0.0, 0.9120000433176756, 0.0, 0.0, 0.0, 0.0, 0.0, 1.740160997063169E9, 0.0, 2025-02-21 12:03:17.063
13.0, -489.0405379058793, -584.3238390269689, -377.9860786716454, -372.8829851821065, -0.43200002051889896, 0.0, 0.9120000433176756, 0.0, 0.0, 0.0, 0.0, 0.0, 1.740160997064218E9, 0.0, 2025-02-21 12:03:17.064
13.0, -496.0977291222662, -596.5944507815875, -384.2840701970272, -385.79685972910374, -0.43200002051889896, 0.0, 0.9120000433176756, 0.0, 0.0, 0.0, 0.0, 0.0, 1.740160997064231E9, 0.0, 2025-02-21 12:03:17.064
14.0, -486.9087949311361, -584.7651472217403, -380.52173084160313, -386.9337893156335, -0.43200002051889896, 0.0, 0.9120000433176756, 0.0, 0.0, 0.0, 0.0, 0.0, 1.74016099706425E9, 0.0, 2025-02-21 12:03:17.064
14.0, -493.84630934894085, -587.8580444850959, -376.46767928963527, -376.27881434187293, -0.43200002051889896, 0.0, 0.9120000433176756, 0.0, 0.0, 0.0, 0.0, 0.0, 1.740160997064261E9, 0.0, 2025-02-21 12:03:17.064
15.0, -499.18688648566604, -592.3646239317022, -388.2745434497483, -395.46076121460646, -0.43200002051889896, 0.0, 0.9120000433176756, 0.0, 0.0, 0.0, 0.0, 0.0, 1.740160997091978E9, 0.0, 2025-02-21 12:03:17.091
15.0, -500.7576444670558, -593.0116266240366, -374.06666351808235, -384.1513037486002, -0.43200002051889896, 0.0, 0.9120000433176756, 0.0, 0.0, 0.0, 0.0, 0.0, 1.740160997092001E9, 0.0, 2025-02-21 12:03:17.092
16.0, -494.3399761430919, -592.4843007302843, -370.9700263547711, -387.1133045135066, -0.43200002051889896, 0.0, 0.9120000433176756, 0.0, 0.0, 0.0, 0.0, 0.0, 1.74016099709278E9, 0.0, 2025-02-21 12:03:17.092
16.0, -495.2300723325461, -594.8740968019702, -385.5070174825378, -395.73003401141614, -0.43200002051889896, 0.0, 0.9120000433176756, 0.0, 0.0, 0.0, 0.0, 0.0, 1.740160997092811E9, 0.0, 2025-02-21 12:03:17.092
17.0, -499.84136897791177, -591.6540429401211, -379.03325065923855, -376.1479178434238, -0.43200002051889896, 0.0, 0.9120000433176756, 0.0, 0.0, 0.0, 0.0, 0.0, 1.740160997121881E9, 0.0, 2025-02-21 12:03:17.121
17.0, -493.99964524712414, -598.5691179581918, -384.2653706972487, -385.3368520345539, -0.43200002051889896, 0.0, 0.9120000433176756, 0.0, 0.0, 0.0, 0.0, 0.0, 1.740160997121913E9, 0.0, 2025-02-21 12:03:17.121
18.0, -500.18917967379093, -597.9707339652814, -399.85701361251995, -395.2662864169106, -0.43200002051889896, 0.0, 0.9120000433176756, 0.0, 0.0, 0.0, 0.0, 0.0, 1.740160997122978E9, 0.0, 2025-02-21 12:03:17.122
18.0, -491.72952597402036, -590.4834542539902, -377.1333814817481, -375.916044046171, -0.43200002051889896, 0.0, 0.9120000433176756, 0.0, 0.0, 0.0, 0.0, 0.0, 1.740160997122991E9, 0.0, 2025-02-21 12:03:17.122
19.0, -500.5818691691384, -598.2587062618695, -390.52222332311794, -390.28099977597594, -0.43200002051889896, 0.0, 0.9120000433176756, 0.0, 0.0, 0.0, 0.0, 0.0, 1.740160997124451E9, 0.0, 2025-02-21 12:03:17.124
19.0, -494.0407841466367, -585.9207763080485, -376.0413306946866, -383.5940586552024, -0.43200002051889896, 0.0, 0.9120000433176756, 0.0, 0.0, 0.0, 0.0, 0.0, 1.74016099712447E9, 0.0, 2025-02-21 12:03:17.124
20.0, -495.09917583409697, -587.5625923885964, -378.92853346047923, -375.53831415064633, -0.43200002051889896, 0.0, 0.9120000433176756, 0.0, 0.0, 0.0, 0.0, 0.0, 1.740160997124496E9, 0.0, 2025-02-21 12:03:17.124
20.0, -494.20907964464277, -587.8879636847414, -375.1512345052324, -367.8042010422796, -0.43200002051889896, 0.0, 0.9120000433176756, 0.0, 0.0, 0.0, 0.0, 0.0, 1.740160997124565E9, 0.0, 2025-02-21 12:03:17.124
21.0, -493.6443547513336, -590.1543430578895, -375.3457093029283, -377.59899902623147, -0.43200002051889896, 0.0, 0.9120000433176756, 0.0, 0.0, 0.0, 0.0, 0.0, 1.740160997151803E9, 0.0, 2025-02-21 12:03:17.151
21.0, -491.25081877969205, -587.3007993916981, -377.7168058748357, -372.85680588241667, -0.43200002051889896, 0.0, 0.9120000433176756, 0.0, 0.0, 0.0, 0.0, 0.0, 1.740160997151829E9, 0.0, 2025-02-21 12:03:17.151
22.0, -482.8547433791682, -573.2724346579053, -357.0875177192502, -358.8770598480478, -0.43200002051889896, 0.0, 0.9120000433176756, 0.0, 0.0, 0.0, 0.0, 0.0, 1.740160997152821E9, 0.0, 2025-02-21 12:03:17.152
22.0, -484.84811005555093, -582.62218454713, -365.87628261512145, -356.1319732805714, -0.43200002051889896, 0.0, 0.9120000433176756, 0.0, 0.0, 0.0, 0.0, 0.0, 1.740160997152837E9, 0.0, 2025-02-21 12:03:17.152
23.0, -491.25081877969205, -585.3336120150052, -381.17621333384886, -377.41948382835835, -0.43200002051889896, 0.0, 0.9120000433176756, 0.0, 0.0, 0.0, 0.0, 0.0, 1.740160997181873E9, 0.0, 2025-02-21 12:03:17.181
23.0, -485.72698654513806, -581.765747457277, -362.68614795291796, -377.23622873052955, -0.43200002051889896, 0.0, 0.9120000433176756, 0.0, 0.0, 0.0, 0.0, 0.0, 1.740160997181897E9, 0.0, 2025-02-21 12:03:17.181
24.0, -497.21969910897315, -578.9009840912186, -367.31614409806207, -381.12572468444705, -0.43200002051889896, 0.0, 0.9120000433176756, 0.0, 0.0, 0.0, 0.0, 0.0, 1.740160997183216E9, 0.0, 2025-02-21 12:03:17.183
24.0, -493.2666248558089, -588.1609763815068, -379.051950159017, -385.8230390287936, -0.43200002051889896, 0.0, 0.9120000433176756, 0.0, 0.0, 0.0, 0.0, 0.0, 1.740160997183233E9, 0.0, 2025-02-21 12:03:17.183
25.0, -490.55519738793373, -585.5542661123909, -377.7803841740824, -374.9100109580904, -0.43200002051889896, 0.0, 0.9120000433176756, 0.0, 0.0, 0.0, 0.0, 0.0, 1.740160997184798E9, 0.0, 2025-02-21 12:03:17.184
25.0, -499.2055859854445, -592.8208917262964, -384.2728504971601, -384.1139047490433, -0.43200002051889896, 0.0, 0.9120000433176756, 0.0, 0.0, 0.0, 0.0, 0.0, 1.740160997184812E9, 0.0, 2025-02-21 12:03:17.184
26.0, -491.3742354782298, -584.757667421829, -375.9291336960159, -379.5213076034561, -0.43200002051889896, 0.0, 0.9120000433176756, 0.0, 0.0, 0.0, 0.0, 0.0, 1.740160997213141E9, 0.0, 2025-02-21 12:03:17.213
26.0, -491.0077252825722, -578.3362591979094, -370.99246575450525, -378.61251191422343, -0.43200002051889896, 0.0, 0.9120000433176756, 0.0, 0.0, 0.0, 0.0, 0.0, 1.740160997213172E9, 0.0, 2025-02-21 12:03:17.213
27.0, -489.69876029808074, -585.8609379087575, -377.447533078026, -383.01437416207045, -0.43200002051889896, 0.0, 0.9120000433176756, 0.0, 0.0, 0.0, 0.0, 0.0, 1.740160997213198E9, 0.0, 2025-02-21 12:03:17.213
27.0, -494.99819853529334, -590.0122268595733, -382.21590552153066, -390.64750997163355, -0.43200002051889896, 0.0, 0.9120000433176756, 0.0, 0.0, 0.0, 0.0, 0.0, 1.740160997213209E9, 0.0, 2025-02-21 12:03:17.213
28.0, -498.1284947982058, -594.1971749099903, -385.02831028820947, -378.1151052201167, -0.43200002051889896, 0.0, 0.9120000433176756, 0.0, 0.0, 0.0, 0.0, 0.0, 1.74016099721323E9, 0.0, 2025-02-21 12:03:17.213
28.0, -499.127048086375, -586.2760668038391, -376.4901186893694, -385.04887973796576, -0.43200002051889896, 0.0, 0.9120000433176756, 0.0, 0.0, 0.0, 0.0, 0.0, 1.740160997213241E9, 0.0, 2025-02-21 12:03:17.213
29.0, -495.03933743480593, -583.7104954342358, -387.2348512620665, -370.60164620913565, -0.43200002051889896, 0.0, 0.9120000433176756, 0.0, 0.0, 0.0, 0.0, 0.0, 1.740160997214033E9, 0.0, 2025-02-21 12:03:17.214
29.0, -490.4504801891744, -583.7179752341472, -373.54681742424145, -378.9640625100583, -0.43200002051889896, 0.0, 0.9120000433176756, 0.0, 0.0, 0.0, 0.0, 0.0, 1.740160997214053E9, 0.0, 2025-02-21 12:03:17.214
30.0, -481.69537439290434, -571.346386180725, -362.72354695247486, -369.8424465181306, -0.43200002051889896, 0.0, 0.9120000433176756, 0.0, 0.0, 0.0, 0.0, 0.0, 1.740160997245632E9, 0.0, 2025-02-21 12:03:17.245
30.0, -480.8950358023867, -579.3796912855469, -355.0380525435321, -357.3250013664365, -0.43200002051889896, 0.0, 0.9120000433176756, 0.0, 0.0, 0.0, 0.0, 0.0, 1.740160997245659E9, 0.0, 2025-02-21 12:03:17.245
31.0, -485.53999154735357, -576.2568748225458, -375.9291336960159, -382.23647497128695, -0.43200002051889896, 0.0, 0.9120000433176756, 0.0, 0.0, 0.0, 0.0, 0.0, 1.740160997245927E9, 0.0, 2025-02-21 12:03:17.245
31.0, -482.36481648497283, -571.6979367765598, -369.99391246633604, -365.81831416580826, -0.43200002051889896, 0.0, 0.9120000433176756, 0.0, 0.0, 0.0, 0.0, 0.0, 1.740160997245942E9, 0.0, 2025-02-21 12:03:17.245
32.0, -483.0080792773515, -577.5359206073917, -368.6288489825092, -373.6683641728014, -0.43200002051889896, 0.0, 0.9120000433176756, 0.0, 0.0, 0.0, 0.0, 0.0, 1.740160997271874E9, 0.0, 2025-02-21 12:03:17.271
32.0, -479.95632091350853, -571.9821691731922, -368.8569828798063, -390.78962616994977, -0.43200002051889896, 0.0, 0.9120000433176756, 0.0, 0.0, 0.0, 0.0, 0.0, 1.740160997271899E9, 0.0, 2025-02-21 12:03:17.271
33.0, -484.57509735878557, -571.2154896822758, -366.7439394048415, -372.30704058893025, -0.43200002051889896, 0.0, 0.9120000433176756, 0.0, 0.0, 0.0, 0.0, 0.0, 1.740160997273242E9, 0.0, 2025-02-21 12:03:17.273
33.0, -483.8981754668057, -582.5212072483264, -378.58072276460007, -379.0986989084631, -0.43200002051889896, 0.0, 0.9120000433176756, 0.0, 0.0, 0.0, 0.0, 0.0, 1.740160997273255E9, 0.0, 2025-02-21 12:03:17.273
34.0, -478.87922972626984, -571.0958128836937, -368.28851808654144, -377.01931453309953, -0.43200002051889896, 0.0, 0.9120000433176756, 0.0, 0.0, 0.0, 0.0, 0.0, 1.740160997273275E9, 0.0, 2025-02-21 12:03:17.273
34.0, -480.0498184124008, -573.1078790598549, -367.4806996961124, -374.75667505990714, -0.43200002051889896, 0.0, 0.9120000433176756, 0.0, 0.0, 0.0, 0.0, 0.0, 1.740160997273285E9, 0.0, 2025-02-21 12:03:17.273
35.0, -483.0342585770413, -584.177982928697, -380.03554384736344, -383.4407227570191, -0.43200002051889896, 0.0, 0.9120000433176756, 0.0, 0.0, 0.0, 0.0, 0.0, 1.740160997274408E9, 0.0, 2025-02-21 12:03:17.274
35.0, -494.134281645529, -582.1958359521814, -367.895828591194, -375.3587989527732, -0.43200002051889896, 0.0, 0.9120000433176756, 0.0, 0.0, 0.0, 0.0, 0.0, 1.740160997274429E9, 0.0, 2025-02-21 12:03:17.274
36.0, -518.7764824535698, -603.2365131028928, -389.2469174382277, -392.8503110455349, -0.43200002051889896, 0.0, 0.9120000433176756, 0.0, 0.0, 0.0, 0.0, 0.0, 1.740160997301867E9, 0.0, 2025-02-21 12:03:17.301
36.0, -475.3450242681429, -561.1214997018687, -376.40784089034423, -375.49717525113374, -0.43200002051889896, 0.0, 0.9120000433176756, 0.0, 0.0, 0.0, 0.0, 0.0, 1.740160997301898E9, 0.0, 2025-02-21 12:03:17.301
37.0, -458.3284794697538, -559.2029310245998, -351.6197839840315, -356.7191375736147, -0.43200002051889896, 0.0, 0.9120000433176756, 0.0, 0.0, 0.0, 0.0, 0.0, 1.740160997302803E9, 0.0, 2025-02-21 12:03:17.302
37.0, -466.67967607080936, -561.9180983924307, -372.2228928399272, -375.2092029545456, -0.43200002051889896, 0.0, 0.9120000433176756, 0.0, 0.0, 0.0, 0.0, 0.0, 1.740160997302821E9, 0.0, 2025-02-21 12:03:17.302
38.0, -450.2203763658181, -553.2340506953187, -358.24314680555835, -366.2147435611114, -0.43200002051889896, 0.0, 0.9120000433176756, 0.0, 0.0, 0.0, 0.0, 0.0, 1.740160997331865E9, 0.0, 2025-02-21 12:03:17.331
38.0, -461.42511663306504, -558.2081176363863, -359.84008408663794, -355.159599292092, -0.43200002051889896, 0.0, 0.9120000433176756, 0.0, 0.0, 0.0, 0.0, 0.0, 1.74016099733189E9, 0.0, 2025-02-21 12:03:17.331
39.0, -448.3242470882833, -550.9227925227024, -351.20465508894995, -352.1601995276287, -0.43200002051889896, 0.0, 0.9120000433176756, 0.0, 0.0, 0.0, 0.0, 0.0, 1.740160997332995E9, 0.0, 2025-02-21 12:03:17.332
39.0, -462.04967992566526, -557.6134735434316, -352.53979937313125, -357.7588297612965, -0.43200002051889896, 0.0, 0.9120000433176756, 0.0, 0.0, 0.0, 0.0, 0.0, 1.740160997333012E9, 0.0, 2025-02-21 12:03:17.333
40.0, -475.24404696933925, -579.4395296848379, -368.72982628131285, -383.53796015586704, -0.43200002051889896, 0.0, 0.9120000433176756, 0.0, 0.0, 0.0, 0.0, 0.0, 1.740160997333034E9, 0.0, 2025-02-21 12:03:17.333
40.0, -475.95088806096464, -573.8259398513474, -370.87278895592317, -367.763062142767, -0.43200002051889896, 0.0, 0.9120000433176756, 0.0, 0.0, 0.0, 0.0, 0.0, 1.740160997333044E9, 0.0, 2025-02-21 12:03:17.333
41.0, -481.8599299909547, -578.2165823993273, -364.6458555296995, -371.52540149819106, -0.43200002051889896, 0.0, 0.9120000433176756, 0.0, 0.0, 0.0, 0.0, 0.0, 1.740160997334101E9, 0.0, 2025-02-21 12:03:17.334
41.0, -478.6062170295045, -583.9947278308682, -382.055089823436, -376.72386243660003, -0.43200002051889896, 0.0, 0.9120000433176756, 0.0, 0.0, 0.0, 0.0, 0.0, 1.740160997334114E9, 0.0, 2025-02-21 12:03:17.334
42.0, -480.7117807045579, -570.8190602869727, -366.4185681086965, -368.30534763634205, -0.4480000212788582, 0.0, 0.9120000433176756, 0.0, 0.0, 0.0, 0.0, 0.0, 1.740160997361933E9, 0.0, 2025-02-21 12:03:17.361
42.0, -482.03196538891643, -576.5934658185579, -364.35414333315566, -372.8007073830813, -0.4480000212788582, 0.0, 0.9120000433176756, 0.0, 0.0, 0.0, 0.0, 0.0, 1.740160997361963E9, 0.0, 2025-02-21 12:03:17.361
43.0, -482.83604387938976, -583.9872480309568, -382.2046858216636, -384.82448574062437, -0.4480000212788582, 0.0, 0.9120000433176756, 0.0, 0.0, 0.0, 0.0, 0.0, 1.740160997362837E9, 0.0, 2025-02-21 12:03:17.362
43.0, -486.572203935124, -584.5482330243103, -374.50423181289807, -376.9519963338971, -0.4480000212788582, 0.0, 0.9120000433176756, 0.0, 0.0, 0.0, 0.0, 0.0, 1.740160997362852E9, 0.0, 2025-02-21 12:03:17.362
44.0, -486.54976453538984, -577.3676251093857, -382.4253399190493, -392.53989934921265, -0.4480000212788582, 0.0, 0.9120000433176756, 0.0, 0.0, 0.0, 0.0, 0.0, 1.740160997392019E9, 0.0, 2025-02-21 12:03:17.392
44.0, -480.8202378032729, -572.4945354671218, -367.65647499402985, -378.219822418876, -0.4480000212788582, 0.0, 0.9120000433176756, 0.0, 0.0, 0.0, 0.0, 0.0, 1.740160997392045E9, 0.0, 2025-02-21 12:03:17.392
45.0, -482.7874251799658, -579.5853857831098, -367.2974445982836, -373.78804097138345, -0.4480000212788582, 0.0, 0.9120000433176756, 0.0, 0.0, 0.0, 0.0, 0.0, 1.740160997394561E9, 0.0, 2025-02-21 12:03:17.394
45.0, -479.98998001310974, -580.898090667557, -383.4500725069083, -390.4418154740706, -0.4480000212788582, 0.0, 0.9120000433176756, 0.0, 0.0, 0.0, 0.0, 0.0, 1.740160997394576E9, 0.0, 2025-02-21 12:03:17.394
46.0, -480.6295029055327, -578.3474788977765, -369.8667558678426, -374.34528606478125, -0.4480000212788582, 0.0, 0.9120000433176756, 0.0, 0.0, 0.0, 0.0, 0.0, 1.740160997394632E9, 0.0, 2025-02-21 12:03:17.394
46.0, -473.01506659574807, -576.0997990244068, -357.06507831951603, -368.37266583554447, -0.4480000212788582, 0.0, 0.9120000433176756, 0.0, 0.0, 0.0, 0.0, 0.0, 1.740160997394643E9, 0.0, 2025-02-21 12:03:17.394
47.0, -478.41922203172, -576.1110187242739, -364.0399917368777, -374.734235660173, -0.4480000212788582, 0.0, 0.9120000433176756, 0.0, 0.0, 0.0, 0.0, 0.0, 1.740160997394662E9, 0.0, 2025-02-21 12:03:17.394
47.0, -503.7981831310317, -589.8514111614786, -366.40360850887373, -369.0944665269926, -0.4480000212788582, 0.0, 0.9120000433176756, 0.0, 0.0, 0.0, 0.0, 0.0, 1.740160997394672E9, 0.0, 2025-02-21 12:03:17.394
48.0, -488.0494644176215, -582.1846162523143, -382.3542818198912, -394.5968443248421, -0.4480000212788582, 0.0, 0.9120000433176756, 0.0, 0.0, 0.0, 0.0, 0.0, 1.74016099742279E9, 0.0, 2025-02-21 12:03:17.422
48.0, -451.1815306544304, -554.9656243748032, -351.7058016830124, -357.37735996581614, -0.4480000212788582, 0.0, 0.9120000433176756, 0.0, 0.0, 0.0, 0.0, 0.0, 1.740160997422824E9, 0.0, 2025-02-21 12:03:17.422
49.0, -472.8168518980965, -569.2857013051398, -356.43677512696013, -359.875613136217, -0.4480000212788582, 0.0, 0.9120000433176756, 0.0, 0.0, 0.0, 0.0, 0.0, 1.740160997422854E9, 0.0, 2025-02-21 12:03:17.422
49.0, -452.296020841226, -560.4894566093571, -366.3026312100701, -366.8505265535787, -0.4480000212788582, 0.0, 0.9120000433176756, 0.0, 0.0, 0.0, 0.0, 0.0, 1.740160997422865E9, 0.0, 2025-02-21 12:03:17.422
50.0, -459.5065479557961, -564.9848163560964, -360.03081898437813, -356.9510113708675, -0.4480000212788582, 0.0, 0.9120000433176756, 0.0, 0.0, 0.0, 0.0, 0.0, 1.740160997451944E9, 0.0, 2025-02-21 12:03:17.451
50.0, -462.9584756148979, -566.9744431325234, -356.17498213006184, -360.93026492372155, -0.4480000212788582, 0.0, 0.9120000433176756, 0.0, 0.0, 0.0, 0.0, 0.0, 1.740160997451972E9, 0.0, 2025-02-21 12:03:17.451
51.0, -482.495712983422, -578.4260167968459, -377.03240418294445, -378.38063811697066, -0.4480000212788582, 0.0, 0.9120000433176756, 0.0, 0.0, 0.0, 0.0, 0.0, 1.740160997453321E9, 0.0, 2025-02-21 12:03:17.453
51.0, -482.3087179856375, -587.4503953899257, -379.5680563529022, -371.37954539991915, -0.4480000212788582, 0.0, 0.9120000433176756, 0.0, 0.0, 0.0, 0.0, 0.0, 1.740160997453337E9, 0.0, 2025-02-21 12:03:17.453
52.0, -478.3743432322517, -584.2079021283425, -385.3536815843545, -377.64761772565544, -0.4480000212788582, 0.0, 0.9120000433176756, 0.0, 0.0, 0.0, 0.0, 0.0, 1.74016099745336E9, 0.0, 2025-02-21 12:03:17.453
52.0, -483.80467796791345, -584.9783215192147, -381.10515523469076, -390.0827850783244, -0.4480000212788582, 0.0, 0.9120000433176756, 0.0, 0.0, 0.0, 0.0, 0.0, 1.740160997453371E9, 0.0, 2025-02-21 12:03:17.453
53.0, -472.6672558998689, -577.0422538132407, -384.22423179773614, -392.3042856520042, -0.4480000212788582, 0.0, 0.9120000433176756, 0.0, 0.0, 0.0, 0.0, 0.0, 1.740160997454395E9, 0.0, 2025-02-21 12:03:17.454
53.0, -484.39558216091245, -602.413735112641, -443.7409996925853, -458.362138569355, -0.4480000212788582, 0.0, 0.9120000433176756, 0.0, 0.0, 0.0, 0.0, 0.0, 1.740160997454408E9, 0.0, 2025-02-21 12:03:17.454
54.0, -493.3189834551886, -590.4797143540345, -398.21893743192777, -400.9584141494706, -0.4480000212788582, 0.0, 0.9120000433176756, 0.0, 0.0, 0.0, 0.0, 0.0, 1.740160997482275E9, 0.0, 2025-02-21 12:03:17.482
54.0, -486.1608149399981, -586.2311880043708, -387.5826619579457, -392.5249397493899, -0.4480000212788582, 0.0, 0.9120000433176756, 0.0, 0.0, 0.0, 0.0, 0.0, 1.740160997482296E9, 0.0, 2025-02-21 12:03:17.482
55.0, -482.6677483813837, -575.2471018345095, -377.6831467752345, -386.5635392200202, -0.4480000212788582, 0.0, 0.9120000433176756, 0.0, 0.0, 0.0, 0.0, 0.0, 1.740160997483587E9, 0.0, 2025-02-21 12:03:17.483
55.0, -475.1056706709787, -566.0245085437782, -343.4331429810263, -355.30545539036393, -0.4480000212788582, 0.0, 0.9120000433176756, 0.0, 0.0, 0.0, 0.0, 0.0, 1.7401609974836E9, 0.0, 2025-02-21 12:03:17.483
56.0, -477.87693653814495, -566.7575289350934, -363.011519249063, -354.2508036028594, -0.4480000212788582, 0.0, 0.9120000433176756, 0.0, 0.0, 0.0, 0.0, 0.0, 1.740160997512624E9, 0.0, 2025-02-21 12:03:17.512
56.0, -467.3752974625677, -552.6543662021868, -328.4361441587098, -331.6767674703151, -0.4480000212788582, 0.0, 0.9120000433176756, 0.0, 0.0, 0.0, 0.0, 0.0, 1.740160997512657E9, 0.0, 2025-02-21 12:03:17.512
57.0, -469.4060631385073, -544.5387832983397, -302.7916501625441, -313.4522349862382, -0.4480000212788582, 0.0, 0.9120000433176756, 0.0, 0.0, 0.0, 0.0, 0.0, 1.74016099751369E9, 0.0, 2025-02-21 12:03:17.513
57.0, -454.2220693184063, -530.435620565433, -307.73579790396616, -313.5980910845101, -0.4480000212788582, 0.0, 0.9120000433176756, 0.0, 0.0, 0.0, 0.0, 0.0, 1.740160997513703E9, 0.0, 2025-02-21 12:03:17.513
58.0, -461.413896933198, -521.0634312764741, -265.9685951988213, -269.1643397109583, -0.4480000212788582, 0.0, 0.9120000433176756, 0.0, 0.0, 0.0, 0.0, 0.0, 1.740160997513732E9, 0.0, 2025-02-21 12:03:17.513
58.0, -449.71922977175564, -516.8822231260128, -267.1803227844648, -263.4198533790186, -0.4480000212788582, 0.0, 0.9120000433176756, 0.0, 0.0, 0.0, 0.0, 0.0, 1.740160997513743E9, 0.0, 2025-02-21 12:03:17.513
59.0, -449.2480023773387, -510.7749664983712, -263.3693647296168, -256.8974678562954, -0.4480000212788582, 0.0, 0.9120000433176756, 0.0, 0.0, 0.0, 0.0, 0.0, 1.740160997514754E9, 0.0, 2025-02-21 12:03:17.514
59.0, -457.64407777786255, -511.0704185948707, -242.71389727434143, -247.79455136414617, -0.4480000212788582, 0.0, 0.9120000433176756, 0.0, 0.0, 0.0, 0.0, 0.0, 1.740160997514772E9, 0.0, 2025-02-21 12:03:17.514
60.0, -437.45609781704843, -509.028433219064, -276.12990337843075, -282.8486336488277, -0.4480000212788582, 0.0, 0.9120000433176756, 0.0, 0.0, 0.0, 0.0, 0.0, 1.740160997545587E9, 0.0, 2025-02-21 12:03:17.545
60.0, -432.0145433815196, -499.4505494325422, -228.41625974373892, -229.7757133776322, -0.4480000212788582, 0.0, 0.9120000433176756, 0.0, 0.0, 0.0, 0.0, 0.0, 1.740160997545615E9, 0.0, 2025-02-21 12:03:17.545
61.0, -447.16487810201943, -517.6863016164862, -255.72126932023093, -259.20872602891177, -0.4480000212788582, 0.0, 0.9120000433176756, 0.0, 0.0, 0.0, 0.0, 0.0, 1.740160997545638E9, 0.0, 2025-02-21 12:03:17.545
61.0, -447.75578229501843, -524.7734120325185, -283.4825466913171, -279.1723119923845, -0.4480000212788582, 0.0, 0.9120000433176756, 0.0, 0.0, 0.0, 0.0, 0.0, 1.740160997545649E9, 0.0, 2025-02-21 12:03:17.545
62.0, -457.505701479502, -526.8266171081923, -297.1593608292751, -304.6298109907657, -0.4480000212788582, 0.0, 0.9120000433176756, 0.0, 0.0, 0.0, 0.0, 0.0, 1.740160997571923E9, 0.0, 2025-02-21 12:03:17.571
62.0, -452.2511420417577, -521.5870172702707, -286.80357785196975, -282.4035855541006, -0.4480000212788582, 0.0, 0.9120000433176756, 0.0, 0.0, 0.0, 0.0, 0.0, 1.740160997571948E9, 0.0, 2025-02-21 12:03:17.571
63.0, -450.2203763658181, -526.4339276128449, -321.8688798365183, -308.72126154229045, -0.4480000212788582, 0.0, 0.9120000433176756, 0.0, 0.0, 0.0, 0.0, 0.0, 1.740160997573345E9, 0.0, 2025-02-21 12:03:17.573
63.0, -459.2484948588535, -539.6769133559428, -336.8097801594995, -321.83709068689495, -0.4480000212788582, 0.0, 0.9120000433176756, 0.0, 0.0, 0.0, 0.0, 0.0, 1.740160997573362E9, 0.0, 2025-02-21 12:03:17.573
64.0, -459.79452025238425, -549.3108956418, -355.7411537352018, -357.2502033673227, -0.4480000212788582, 0.0, 0.9120000433176756, 0.0, 0.0, 0.0, 0.0, 0.0, 1.740160997573434E9, 0.0, 2025-02-21 12:03:17.573
64.0, -458.0629465728998, -557.3591603464447, -350.3369982992299, -345.85098830237985, -0.4480000212788582, 0.0, 0.9120000433176756, 0.0, 0.0, 0.0, 0.0, 0.0, 1.740160997573451E9, 0.0, 2025-02-21 12:03:17.573
65.0, -471.9753744080663, -566.0843469430692, -360.8199378750287, -357.62793326284736, -0.4480000212788582, 0.0, 0.9120000433176756, 0.0, 0.0, 0.0, 0.0, 0.0, 1.740160997574457E9, 0.0, 2025-02-21 12:03:17.574
65.0, -469.64167683571577, -567.486809426453, -383.47625180659816, -387.1170444134623, -0.4480000212788582, 0.0, 0.9120000433176756, 0.0, 0.0, 0.0, 0.0, 0.0, 1.74016099757448E9, 0.0, 2025-02-21 12:03:17.574
66.0, -460.3031466463581, -555.0479021738283, -365.39009562088177, -360.6572522269562, -0.4480000212788582, 0.0, 0.9120000433176756, 0.0, 0.0, 0.0, 0.0, 0.0, 1.740160997602022E9, 0.0, 2025-02-21 12:03:17.602
66.0, -477.27481264527887, -576.7692411164753, -398.78366232523695, -387.68176930677146, -0.4480000212788582, 0.0, 0.9120000433176756, 0.0, 0.0, 0.0, 0.0, 0.0, 1.740160997602047E9, 0.0, 2025-02-21 12:03:17.602
67.0, -476.87464335002005, -571.9073711740784, -381.07523603504524, -378.52649421524256, -0.4480000212788582, 0.0, 0.9120000433176756, 0.0, 0.0, 0.0, 0.0, 0.0, 1.740160997602976E9, 0.0, 2025-02-21 12:03:17.602
67.0, -479.09240402374417, -578.6055319947191, -371.36645575007424, -376.67898363713175, -0.4480000212788582, 0.0, 0.9120000433176756, 0.0, 0.0, 0.0, 0.0, 0.0, 1.740160997602995E9, 0.0, 2025-02-21 12:03:17.602
68.0, -483.5615844707936, -588.2769132801332, -413.08877965575084, -419.0595299350098, -0.4480000212788582, 0.0, 0.9120000433176756, 0.0, 0.0, 0.0, 0.0, 0.0, 1.74016099763192E9, 0.0, 2025-02-21 12:03:17.631
68.0, -485.31559755001217, -575.9277636264451, -373.0494107301347, -366.4989759577438, -0.4480000212788582, 0.0, 0.9120000433176756, 0.0, 0.0, 0.0, 0.0, 0.0, 1.740160997631946E9, 0.0, 2025-02-21 12:03:17.631
69.0, -481.8898491906002, -587.5887716882862, -387.44428565958515, -391.72834105882794, -0.4480000212788582, 0.0, 0.9120000433176756, 0.0, 0.0, 0.0, 0.0, 0.0, 1.740160997633382E9, 0.0, 2025-02-21 12:03:17.633
69.0, -485.43527434859425, -580.9803684665821, -390.0958747281693, -402.1140432357788, -0.4480000212788582, 0.0, 0.9120000433176756, 0.0, 0.0, 0.0, 0.0, 0.0, 1.740160997633407E9, 0.0, 2025-02-21 12:03:17.633
70.0, -489.5566440997645, -587.0427462947555, -375.77579779783264, -379.4053707048297, -0.4480000212788582, 0.0, 0.9120000433176756, 0.0, 0.0, 0.0, 0.0, 0.0, 1.740160997633435E9, 0.0, 2025-02-21 12:03:17.633
70.0, -478.0527118360624, -584.4285562257282, -406.1325657381676, -414.66514748707414, -0.4480000212788582, 0.0, 0.9120000433176756, 0.0, 0.0, 0.0, 0.0, 0.0, 1.740160997633446E9, 0.0, 2025-02-21 12:03:17.633
71.0, -483.5316652711481, -585.3784908144735, -388.55503594642505, -398.1460093827918, -0.4480000212788582, 0.0, 0.9120000433176756, 0.0, 0.0, 0.0, 0.0, 0.0, 1.740160997634515E9, 0.0, 2025-02-21 12:03:17.634
71.0, -485.17348135169595, -584.6903492226265, -392.246317202691, -401.29126524552703, -0.4480000212788582, 0.0, 0.9120000433176756, 0.0, 0.0, 0.0, 0.0, 0.0, 1.740160997634552E9, 0.0, 2025-02-21 12:03:17.634
72.0, -483.13523587584496, -579.1515573882498, -425.3219924108125, -426.7225849442184, -0.4480000212788582, 0.0, 0.9120000433176756, 0.0, 0.0, 0.0, 0.0, 0.0, 1.740160997661826E9, 0.0, 2025-02-21 12:03:17.661
72.0, -483.8495567673817, -587.1773826931603, -393.4954437878914, -398.65837567672133, -0.4480000212788582, 0.0, 0.9120000433176756, 0.0, 0.0, 0.0, 0.0, 0.0, 1.740160997661869E9, 0.0, 2025-02-21 12:03:17.661
73.0, -487.4847395243123, -583.7815535333939, -395.574828163255, -397.28583239298314, -0.4480000212788582, 0.0, 0.9120000433176756, 0.0, 0.0, 0.0, 0.0, 0.0, 1.740160997662816E9, 0.0, 2025-02-21 12:03:17.662
73.0, -480.3677099086344, -580.789633568842, -402.2094106846489, -412.2977908151224, -0.4480000212788582, 0.0, 0.9120000433176756, 0.0, 0.0, 0.0, 0.0, 0.0, 1.740160997662834E9, 0.0, 2025-02-21 12:03:17.662
74.0, -483.8645163672045, -582.2220152518712, -385.77629027934745, -392.7829928463325, -0.4480000212788582, 0.0, 0.9120000433176756, 0.0, 0.0, 0.0, 0.0, 0.0, 1.740160997692372E9, 0.0, 2025-02-21 12:03:17.692
74.0, -484.002892665565, -585.1204377175309, -415.6655707252212, -417.40649415459484, -0.4480000212788582, 0.0, 0.9120000433176756, 0.0, 0.0, 0.0, 0.0, 0.0, 1.740160997692397E9, 0.0, 2025-02-21 12:03:17.692
75.0, -486.0112189417705, -573.4781291554682, -388.1586065511219, -390.02294667903334, -0.4480000212788582, 0.0, 0.9120000433176756, 0.0, 0.0, 0.0, 0.0, 0.0, 1.740160997693541E9, 0.0, 2025-02-21 12:03:17.693
75.0, -483.46808697190136, -578.2726808986627, -384.6057015932165, -382.7825003648177, -0.4480000212788582, 0.0, 0.9120000433176756, 0.0, 0.0, 0.0, 0.0, 0.0, 1.74016099769356E9, 0.0, 2025-02-21 12:03:17.693
76.0, -485.47641324810684, -583.8301722328179, -426.8067326932214, -424.26173077337444, -0.4480000212788582, 0.0, 0.9120000433176756, 0.0, 0.0, 0.0, 0.0, 0.0, 1.740160997693585E9, 0.0, 2025-02-21 12:03:17.693
76.0, -483.8682562671602, -582.4426693492569, -397.2428235434927, -398.77057267539203, -0.4480000212788582, 0.0, 0.9120000433176756, 0.0, 0.0, 0.0, 0.0, 0.0, 1.740160997693613E9, 0.0, 2025-02-21 12:03:17.693
77.0, -481.46724049560726, -580.475481972564, -407.6173060205765, -418.55838334094733, -0.4480000212788582, 0.0, 0.9120000433176756, 0.0, 0.0, 0.0, 0.0, 0.0, 1.740160997721914E9, 0.0, 2025-02-21 12:03:17.721
77.0, -483.03051867708564, -577.6181984064169, -404.07562076253816, -404.3467635093257, -0.4480000212788582, 0.0, 0.9120000433176756, 0.0, 0.0, 0.0, 0.0, 0.0, 1.740160997721938E9, 0.0, 2025-02-21 12:03:17.721
78.0, -483.24743287451565, -563.1522653778084, -390.3427081252448, -395.7113345116377, -0.4480000212788582, 0.0, 0.9120000433176756, 0.0, 0.0, 0.0, 0.0, 0.0, 1.740160997723049E9, 0.0, 2025-02-21 12:03:17.723
78.0, -489.6127425990999, -594.309371908661, -440.32647103304043, -444.63670573197305, -0.4480000212788582, 0.0, 0.9120000433176756, 0.0, 0.0, 0.0, 0.0, 0.0, 1.740160997723074E9, 0.0, 2025-02-21 12:03:17.723
79.0, -488.57679031137377, -583.370164538268, -402.3178677833639, -417.66454725153744, -0.4480000212788582, 0.0, 0.9120000433176756, 0.0, 0.0, 0.0, 0.0, 0.0, 1.740160997724142E9, 0.0, 2025-02-21 12:03:17.724
79.0, -496.931726812385, -590.2403607568704, -402.81527447747067, -409.06277735345066, -0.4480000212788582, 0.0, 0.9120000433176756, 0.0, 0.0, 0.0, 0.0, 0.0, 1.740160997724161E9, 0.0, 2025-02-21 12:03:17.724
80.0, -487.1257091285661, -582.6932426462881, -428.0708188782446, -446.18876421358436, -0.4480000212788582, 0.0, 0.9120000433176756, 0.0, 0.0, 0.0, 0.0, 0.0, 1.740160997724184E9, 0.0, 2025-02-21 12:03:17.724
80.0, -482.073104288429, -582.1210379530676, -395.92637875908986, -406.88615557923913, -0.4480000212788582, 0.0, 0.9120000433176756, 0.0, 0.0, 0.0, 0.0, 0.0, 1.740160997724195E9, 0.0, 2025-02-21 12:03:17.724
81.0, -486.94993383064866, -589.0585523708723, -417.6963364011608, -427.1302340393886, -0.4480000212788582, 0.0, 0.9120000433176756, 0.0, 0.0, 0.0, 0.0, 0.0, 1.740160997752128E9, 0.0, 2025-02-21 12:03:17.752
81.0, -486.0037391418591, -580.2286485754885, -407.22835642518476, -412.5932429116219, -0.4480000212788582, 0.0, 0.9120000433176756, 0.0, 0.0, 0.0, 0.0, 0.0, 1.74016099775216E9, 0.0, 2025-02-21 12:03:17.752
82.0, -484.0066325655207, -582.7044623461552, -386.63272736920044, -388.24649420008063, -0.4480000212788582, 0.0, 0.9120000433176756, 0.0, 0.0, 0.0, 0.0, 0.0, 1.7401609977547E9, 0.0, 2025-02-21 12:03:17.754
82.0, -487.5595375234261, -588.8865169729106, -433.16456261789426, -434.10888735670596, -0.4480000212788582, 0.0, 0.9120000433176756, 0.0, 0.0, 0.0, 0.0, 0.0, 1.740160997754721E9, 0.0, 2025-02-21 12:03:17.754
83.0, -480.98853330127895, -574.7571749403141, -384.0559362997301, -377.6326581258327, -0.4480000212788582, 0.0, 0.9120000433176756, 0.0, 0.0, 0.0, 0.0, 0.0, 1.740160997783232E9, 0.0, 2025-02-21 12:03:17.783
83.0, -485.6447087461129, -582.7755204453133, -388.0164903528057, -384.89928373973817, -0.4480000212788582, 0.0, 0.9120000433176756, 0.0, 0.0, 0.0, 0.0, 0.0, 1.74016099778326E9, 0.0, 2025-02-21 12:03:17.783
84.0, -480.6631620051339, -572.0307878726162, -414.37530524050817, -432.2127580791712, -0.4480000212788582, 0.0, 0.9120000433176756, 0.0, 0.0, 0.0, 0.0, 0.0, 1.740160997785021E9, 0.0, 2025-02-21 12:03:17.785
84.0, -477.64880264084786, -561.0766209024005, -375.40554770221934, -378.8443857114762, -0.4480000212788582, 0.0, 0.9120000433176756, 0.0, 0.0, 0.0, 0.0, 0.0, 1.740160997785039E9, 0.0, 2025-02-21 12:03:17.785
85.0, -481.69537439290434, -576.9936351138167, -405.45190394623205, -415.1550743812695, -0.4480000212788582, 0.0, 0.9120000433176756, 0.0, 0.0, 0.0, 0.0, 0.0, 1.74016099778511E9, 0.0, 2025-02-21 12:03:17.785
85.0, -483.03051867708564, -570.8901183861308, -389.22447803849354, -401.3810228444636, -0.4480000212788582, 0.0, 0.9120000433176756, 0.0, 0.0, 0.0, 0.0, 0.0, 1.740160997785121E9, 0.0, 2025-02-21 12:03:17.785
